# CTIO DECam transmission (instrument+atmosphere)
# 	wavelength[nm] Thoughput
675.000000 0.000000
675.500000 0.000400
676.000000 0.000790
676.500000 0.000850
677.000000 0.000910
677.500000 0.000980
678.000000 0.001040
678.500000 0.001100
679.000000 0.001160
679.500000 0.001220
680.000000 0.001280
680.500000 0.001350
681.000000 0.001430
681.500000 0.001510
682.000000 0.001590
682.500000 0.001690
683.000000 0.001790
683.500000 0.001890
684.000000 0.001990
684.500000 0.002120
685.000000 0.002260
685.500000 0.002400
686.000000 0.002520
686.500000 0.002560
687.000000 0.002370
687.500000 0.002330
688.000000 0.002690
688.500000 0.003080
689.000000 0.003230
689.500000 0.003420
690.000000 0.003710
690.500000 0.004080
691.000000 0.004470
691.500000 0.004850
692.000000 0.005230
692.500000 0.005860
693.000000 0.006490
693.500000 0.007090
694.000000 0.007670
694.500000 0.008860
695.000000 0.010070
695.500000 0.011260
696.000000 0.012440
696.500000 0.015330
697.000000 0.018270
697.500000 0.021160
698.000000 0.024000
698.500000 0.030670
699.000000 0.037270
699.500000 0.043980
700.000000 0.050790
700.500000 0.064470
701.000000 0.078120
701.500000 0.091830
702.000000 0.105550
702.500000 0.128550
703.000000 0.151740
703.500000 0.175360
704.000000 0.198420
704.500000 0.230970
705.000000 0.263520
705.500000 0.295930
706.000000 0.328690
706.500000 0.366580
707.000000 0.404550
707.500000 0.442280
708.000000 0.480020
708.500000 0.516700
709.000000 0.553270
709.500000 0.589710
710.000000 0.625840
710.500000 0.656080
711.000000 0.686530
711.500000 0.717010
712.000000 0.747380
712.500000 0.768240
713.000000 0.788860
713.500000 0.809870
714.000000 0.830810
714.500000 0.841810
715.000000 0.852540
715.500000 0.863770
716.000000 0.873930
716.500000 0.872730
717.000000 0.863270
717.500000 0.853990
718.000000 0.852020
718.500000 0.840910
719.000000 0.834380
719.500000 0.837220
720.000000 0.839880
720.500000 0.847410
721.000000 0.866880
721.500000 0.885730
722.000000 0.891640
722.500000 0.890130
723.000000 0.878650
723.500000 0.860610
724.000000 0.859340
724.500000 0.862410
725.000000 0.868320
725.500000 0.873430
726.000000 0.881570
726.500000 0.883210
727.000000 0.884110
727.500000 0.880200
728.000000 0.881360
728.500000 0.894260
729.000000 0.893640
729.500000 0.896280
730.000000 0.902910
730.500000 0.899620
731.000000 0.899400
731.500000 0.901030
732.000000 0.905150
732.500000 0.911890
733.000000 0.913890
733.500000 0.912750
734.000000 0.913640
734.500000 0.913860
735.000000 0.912880
735.500000 0.912740
736.000000 0.911580
736.500000 0.912170
737.000000 0.913670
737.500000 0.916570
738.000000 0.918910
738.500000 0.920800
739.000000 0.923060
739.500000 0.925140
740.000000 0.927400
740.500000 0.929600
741.000000 0.931150
741.500000 0.932520
742.000000 0.934070
742.500000 0.934280
743.000000 0.934870
743.500000 0.935650
744.000000 0.935960
744.500000 0.935510
745.000000 0.935350
745.500000 0.934990
746.000000 0.934820
746.500000 0.934690
747.000000 0.934470
747.500000 0.934140
748.000000 0.933920
748.500000 0.934370
749.000000 0.934720
749.500000 0.935170
750.000000 0.935530
750.500000 0.935810
751.000000 0.936370
751.500000 0.936840
752.000000 0.937210
752.500000 0.937580
753.000000 0.937950
753.500000 0.938220
754.000000 0.938490
754.500000 0.937990
755.000000 0.937570
755.500000 0.937160
756.000000 0.936560
756.500000 0.935770
757.000000 0.934880
757.500000 0.933990
758.000000 0.932920
758.500000 0.924580
759.000000 0.875770
759.500000 0.693870
760.000000 0.435920
760.500000 0.302470
761.000000 0.318460
761.500000 0.455530
762.000000 0.599220
762.500000 0.579030
763.000000 0.500730
763.500000 0.501980
764.000000 0.545830
764.500000 0.599450
765.000000 0.662820
765.500000 0.720300
766.000000 0.766780
766.500000 0.806150
767.000000 0.847900
767.500000 0.875740
768.000000 0.891680
768.500000 0.901520
769.000000 0.908280
769.500000 0.914670
770.000000 0.922550
770.500000 0.928260
771.000000 0.930890
771.500000 0.932130
772.000000 0.932990
772.500000 0.933770
773.000000 0.934360
773.500000 0.935130
774.000000 0.935820
774.500000 0.937690
775.000000 0.939280
775.500000 0.941060
776.000000 0.942550
776.500000 0.943410
777.000000 0.944080
777.500000 0.944840
778.000000 0.945420
778.500000 0.945650
779.000000 0.945890
779.500000 0.946030
780.000000 0.946360
780.500000 0.945850
781.000000 0.945440
781.500000 0.945020
782.000000 0.944610
782.500000 0.944160
783.000000 0.943720
783.500000 0.943280
784.000000 0.942930
784.500000 0.943100
785.000000 0.943170
785.500000 0.943340
786.000000 0.943410
786.500000 0.942870
787.000000 0.942420
787.500000 0.942450
788.000000 0.942100
788.500000 0.940530
789.000000 0.938020
789.500000 0.935610
790.000000 0.934230
790.500000 0.932680
791.000000 0.931220
791.500000 0.930320
792.000000 0.928660
792.500000 0.925310
793.000000 0.923440
793.500000 0.923980
794.000000 0.923310
794.500000 0.920850
795.000000 0.917840
795.500000 0.914290
796.000000 0.908350
796.500000 0.906490
797.000000 0.908570
797.500000 0.909630
798.000000 0.909870
798.500000 0.911580
799.000000 0.913560
799.500000 0.915640
800.000000 0.916060
800.500000 0.917310
801.000000 0.919120
801.500000 0.921940
802.000000 0.924950
802.500000 0.926000
803.000000 0.927040
803.500000 0.929110
804.000000 0.930810
804.500000 0.930970
805.000000 0.932340
805.500000 0.933630
806.000000 0.933690
806.500000 0.933610
807.000000 0.933820
807.500000 0.933930
808.000000 0.933950
808.500000 0.931400
809.000000 0.928940
809.500000 0.925740
810.000000 0.923940
810.500000 0.920170
811.000000 0.914090
811.500000 0.914450
812.000000 0.915450
812.500000 0.914090
813.000000 0.907920
813.500000 0.896670
814.000000 0.892080
814.500000 0.890560
815.000000 0.883660
815.500000 0.875360
816.000000 0.867150
816.500000 0.864200
817.000000 0.878280
817.500000 0.878300
818.000000 0.864420
818.500000 0.872850
819.000000 0.878990
819.500000 0.878290
820.000000 0.876750
820.500000 0.893930
821.000000 0.906540
821.500000 0.903700
822.000000 0.892520
822.500000 0.859490
823.000000 0.816000
823.500000 0.833520
824.000000 0.874650
824.500000 0.889490
825.000000 0.892640
825.500000 0.889760
826.000000 0.887430
826.500000 0.897990
827.000000 0.901340
827.500000 0.885190
828.000000 0.876040
828.500000 0.884570
829.000000 0.886370
829.500000 0.891220
830.000000 0.901860
830.500000 0.908730
831.000000 0.921930
831.500000 0.922580
832.000000 0.913990
832.500000 0.920880
833.000000 0.930800
833.500000 0.930330
834.000000 0.932600
834.500000 0.937160
835.000000 0.937540
835.500000 0.935000
836.000000 0.933790
836.500000 0.933610
837.000000 0.933800
837.500000 0.932870
838.000000 0.931830
838.500000 0.932310
839.000000 0.932220
839.500000 0.930320
840.000000 0.927950
840.500000 0.927710
841.000000 0.927460
841.500000 0.928610
842.000000 0.929480
842.500000 0.930480
843.000000 0.930730
843.500000 0.933000
844.000000 0.935820
844.500000 0.936530
845.000000 0.937040
845.500000 0.937560
846.000000 0.937510
846.500000 0.941240
847.000000 0.945540
847.500000 0.949370
848.000000 0.952620
848.500000 0.954980
849.000000 0.957540
849.500000 0.960280
850.000000 0.962930
850.500000 0.955340
851.000000 0.947560
851.500000 0.939870
852.000000 0.932660
852.500000 0.899560
853.000000 0.866160
853.500000 0.832490
854.000000 0.798650
854.500000 0.731960
855.000000 0.665460
855.500000 0.598860
856.000000 0.532230
856.500000 0.400740
857.000000 0.269140
857.500000 0.270200
858.000000 0.271340
858.500000 0.189500
859.000000 0.107570
859.500000 0.107350
860.000000 0.107140
860.500000 0.072990
861.000000 0.038830
861.500000 0.038920
862.000000 0.039010
862.500000 0.026570
863.000000 0.014140
863.500000 0.014320
864.000000 0.014500
864.500000 0.010210
865.000000 0.005920
865.500000 0.005830
866.000000 0.005750
866.500000 0.004230
867.000000 0.002710
867.500000 0.002470
868.000000 0.002240
868.500000 0.002000
869.000000 0.001770
869.500000 0.000890
870.000000 0.000000
