# CTIO DECam transmission (instrument+atmosphere)
# 	wavelength[nm] Thoughput
930.000000 0.000000
930.500000 0.002620
931.000000 0.005020
931.500000 0.005100
932.000000 0.004930
932.500000 0.005030
933.000000 0.005350
933.500000 0.005540
934.000000 0.005240
934.500000 0.005280
935.000000 0.006350
935.500000 0.007020
936.000000 0.007180
936.500000 0.007730
937.000000 0.007970
937.500000 0.009110
938.000000 0.009970
938.500000 0.010830
939.000000 0.012940
939.500000 0.016020
940.000000 0.017420
940.500000 0.018020
941.000000 0.019370
941.500000 0.022980
942.000000 0.025790
942.500000 0.026290
943.000000 0.026960
943.500000 0.034610
944.000000 0.038790
944.500000 0.042790
945.000000 0.054170
945.500000 0.055970
946.000000 0.053370
946.500000 0.081820
947.000000 0.115830
947.500000 0.116550
948.000000 0.108850
948.500000 0.163660
949.000000 0.240390
949.500000 0.229310
950.000000 0.212550
950.500000 0.302760
951.000000 0.421830
951.500000 0.456410
952.000000 0.440880
952.500000 0.461780
953.000000 0.533000
953.500000 0.574470
954.000000 0.600460
954.500000 0.611240
955.000000 0.635960
955.500000 0.631480
956.000000 0.626510
956.500000 0.634320
957.000000 0.646660
957.500000 0.694260
958.000000 0.699180
958.500000 0.677560
959.000000 0.659120
959.500000 0.645720
960.000000 0.669520
960.500000 0.689700
961.000000 0.703710
961.500000 0.717630
962.000000 0.701510
962.500000 0.673030
963.000000 0.695500
963.500000 0.717300
964.000000 0.708280
964.500000 0.708240
965.000000 0.720050
965.500000 0.738580
966.000000 0.725390
966.500000 0.699190
967.000000 0.709900
967.500000 0.755180
968.000000 0.769240
968.500000 0.754450
969.000000 0.762160
969.500000 0.770440
970.000000 0.762580
970.500000 0.758470
971.000000 0.765210
971.500000 0.754690
972.000000 0.748390
972.500000 0.743530
973.000000 0.731770
973.500000 0.723250
974.000000 0.718610
974.500000 0.709390
975.000000 0.701210
975.500000 0.701640
976.000000 0.696880
976.500000 0.701360
977.000000 0.716560
977.500000 0.721580
978.000000 0.712560
978.500000 0.705890
979.000000 0.702520
979.500000 0.697750
980.000000 0.699100
980.500000 0.700780
981.000000 0.713380
981.500000 0.715050
982.000000 0.709660
982.500000 0.702850
983.000000 0.699080
983.500000 0.703960
984.000000 0.705620
984.500000 0.699150
985.000000 0.692290
985.500000 0.692640
986.000000 0.694430
986.500000 0.692200
987.000000 0.687410
987.500000 0.681690
988.000000 0.678510
988.500000 0.675790
989.000000 0.671700
989.500000 0.666810
990.000000 0.661720
990.500000 0.657970
991.000000 0.654470
991.500000 0.650050
992.000000 0.645550
992.500000 0.640470
993.000000 0.635080
993.500000 0.631750
994.000000 0.628670
994.500000 0.625070
995.000000 0.621280
995.500000 0.616430
996.000000 0.611760
996.500000 0.607090
997.000000 0.602300
997.500000 0.597720
998.000000 0.593090
998.500000 0.588510
999.000000 0.583870
999.500000 0.578580
1000.000000 0.573520
1000.500000 0.568800
1001.000000 0.563620
1001.500000 0.557340
1002.000000 0.551010
1002.500000 0.546240
1003.000000 0.541790
1003.500000 0.536310
1004.000000 0.530300
1004.500000 0.524660
1005.000000 0.519120
1005.500000 0.513790
1006.000000 0.508650
1006.500000 0.503410
1007.000000 0.498170
1007.500000 0.492260
1008.000000 0.486260
1008.500000 0.480310
1009.000000 0.474040
1009.500000 0.467490
1010.000000 0.461840
1010.500000 0.456450
1011.000000 0.450730
1011.500000 0.445300
1012.000000 0.439730
1012.500000 0.434520
1013.000000 0.429390
1013.500000 0.423670
1014.000000 0.417870
1014.500000 0.412030
1015.000000 0.406320
1015.500000 0.400860
1016.000000 0.395390
1016.500000 0.389970
1017.000000 0.384390
1017.500000 0.378580
1018.000000 0.372880
1018.500000 0.366950
1019.000000 0.360700
1019.500000 0.355070
1020.000000 0.349890
1020.500000 0.344540
1021.000000 0.339070
1021.500000 0.333500
1022.000000 0.327890
1022.500000 0.322350
1023.000000 0.316690
1023.500000 0.310960
1024.000000 0.305300
1024.500000 0.300040
1025.000000 0.294710
1025.500000 0.289540
1026.000000 0.284420
1026.500000 0.279320
1027.000000 0.274120
1027.500000 0.269390
1028.000000 0.264830
1028.500000 0.260270
1029.000000 0.255630
1029.500000 0.250580
1030.000000 0.245510
1030.500000 0.240380
1031.000000 0.235240
1031.500000 0.230190
1032.000000 0.225180
1032.500000 0.220160
1033.000000 0.215110
1033.500000 0.209350
1034.000000 0.203640
1034.500000 0.197900
1035.000000 0.192160
1035.500000 0.186160
1036.000000 0.180150
1036.500000 0.174140
1037.000000 0.168150
1037.500000 0.164710
1038.000000 0.161300
1038.500000 0.157860
1039.000000 0.154410
1039.500000 0.152140
1040.000000 0.149860
1040.500000 0.147590
1041.000000 0.145310
1041.500000 0.143260
1042.000000 0.141200
1042.500000 0.139150
1043.000000 0.137110
1043.500000 0.135020
1044.000000 0.132950
1044.500000 0.130860
1045.000000 0.128770
1045.500000 0.126730
1046.000000 0.124710
1046.500000 0.122680
1047.000000 0.120670
1047.500000 0.118810
1048.000000 0.116950
1048.500000 0.115070
1049.000000 0.113160
1049.500000 0.111040
1050.000000 0.108950
1050.500000 0.106880
1051.000000 0.104790
1051.500000 0.103260
1052.000000 0.101720
1052.500000 0.100180
1053.000000 0.098650
1053.500000 0.097540
1054.000000 0.096420
1054.500000 0.095310
1055.000000 0.094180
1055.500000 0.093420
1056.000000 0.092660
1056.500000 0.091890
1057.000000 0.091130
1057.500000 0.090050
1058.000000 0.088970
1058.500000 0.087890
1059.000000 0.086830
1059.500000 0.084320
1060.000000 0.081830
1060.500000 0.079340
1061.000000 0.076840
1061.500000 0.071840
1062.000000 0.066830
1062.500000 0.061830
1063.000000 0.056840
1063.500000 0.050830
1064.000000 0.044820
1064.500000 0.038830
1065.000000 0.032840
1065.500000 0.028340
1066.000000 0.023860
1066.500000 0.019370
1067.000000 0.014880
1067.500000 0.012600
1068.000000 0.010330
1068.500000 0.008060
1069.000000 0.005790
1069.500000 0.002900
1070.000000 0.000000
