# CTIO DECam transmission (instrument+atmosphere)
# 	wavelength[nm] Thoughput
825.000000 0.000000
825.500000 0.002180
826.000000 0.004340
826.500000 0.004670
827.000000 0.004970
827.500000 0.005280
828.000000 0.005630
828.500000 0.005660
829.000000 0.005650
829.500000 0.005660
830.000000 0.005710
830.500000 0.006010
831.000000 0.006360
831.500000 0.006840
832.000000 0.007240
832.500000 0.007760
833.000000 0.008310
833.500000 0.008780
834.000000 0.009270
834.500000 0.011350
835.000000 0.013390
835.500000 0.013760
836.000000 0.014140
836.500000 0.014540
837.000000 0.014950
837.500000 0.015340
838.000000 0.015730
838.500000 0.019580
839.000000 0.023420
839.500000 0.025900
840.000000 0.028350
840.500000 0.030790
841.000000 0.033220
841.500000 0.035710
842.000000 0.038190
842.500000 0.057420
843.000000 0.076630
843.500000 0.074320
844.000000 0.072060
844.500000 0.093080
845.000000 0.114110
845.500000 0.135160
846.000000 0.156140
846.500000 0.240180
847.000000 0.324410
847.500000 0.322140
848.000000 0.319680
848.500000 0.380890
849.000000 0.442160
849.500000 0.503530
850.000000 0.564880
850.500000 0.616330
851.000000 0.667640
851.500000 0.718970
852.000000 0.770670
852.500000 0.802220
853.000000 0.833560
853.500000 0.864670
854.000000 0.895590
854.500000 0.904880
855.000000 0.914440
855.500000 0.923910
856.000000 0.933390
856.500000 0.931930
857.000000 0.930290
857.500000 0.935070
858.000000 0.940140
858.500000 0.932070
859.000000 0.923710
859.500000 0.923490
860.000000 0.923440
860.500000 0.925160
861.000000 0.926780
861.500000 0.929360
862.000000 0.931740
862.500000 0.936280
863.000000 0.941010
863.500000 0.945160
864.000000 0.949320
864.500000 0.950490
865.000000 0.951370
865.500000 0.950070
866.000000 0.949060
866.500000 0.952010
867.000000 0.954970
867.500000 0.954580
868.000000 0.954080
868.500000 0.953690
869.000000 0.953390
869.500000 0.953430
870.000000 0.953460
870.500000 0.953500
871.000000 0.953640
871.500000 0.953940
872.000000 0.954230
872.500000 0.954630
873.000000 0.954930
873.500000 0.954580
874.000000 0.954430
874.500000 0.956200
875.000000 0.957970
875.500000 0.958920
876.000000 0.959870
876.500000 0.960820
877.000000 0.961760
877.500000 0.962870
878.000000 0.963790
878.500000 0.964800
879.000000 0.965900
879.500000 0.966550
880.000000 0.967200
880.500000 0.967750
881.000000 0.968310
881.500000 0.969020
882.000000 0.969640
882.500000 0.970250
883.000000 0.971160
883.500000 0.971400
884.000000 0.971940
884.500000 0.972380
885.000000 0.972620
885.500000 0.972700
886.000000 0.972290
886.500000 0.972950
887.000000 0.973900
887.500000 0.974470
888.000000 0.974260
888.500000 0.975230
889.000000 0.976880
889.500000 0.974710
890.000000 0.971960
890.500000 0.971970
891.000000 0.972470
891.500000 0.971560
892.000000 0.969870
892.500000 0.968480
893.000000 0.963490
893.500000 0.960260
894.000000 0.960910
894.500000 0.955840
895.000000 0.945720
895.500000 0.932220
896.000000 0.922520
896.500000 0.909130
897.000000 0.903890
897.500000 0.913480
898.000000 0.919090
898.500000 0.885430
899.000000 0.842700
899.500000 0.863720
900.000000 0.892460
900.500000 0.886130
901.000000 0.891660
901.500000 0.899840
902.000000 0.897480
902.500000 0.893000
903.000000 0.905920
903.500000 0.937750
904.000000 0.957800
904.500000 0.955000
905.000000 0.950740
905.500000 0.951710
906.000000 0.949740
906.500000 0.928580
907.000000 0.904410
907.500000 0.895670
908.000000 0.893710
908.500000 0.896070
909.000000 0.896160
909.500000 0.900740
910.000000 0.903450
910.500000 0.895810
911.000000 0.906090
911.500000 0.911580
912.000000 0.902660
912.500000 0.913190
913.000000 0.891530
913.500000 0.868140
914.000000 0.886140
914.500000 0.916710
915.000000 0.909300
915.500000 0.869010
916.000000 0.879950
916.500000 0.921300
917.000000 0.923980
917.500000 0.896720
918.000000 0.885490
918.500000 0.909170
919.000000 0.932000
919.500000 0.937340
920.000000 0.936060
920.500000 0.947220
921.000000 0.946620
921.500000 0.936230
922.000000 0.934390
922.500000 0.941260
923.000000 0.940190
923.500000 0.933960
924.000000 0.926890
924.500000 0.920520
925.000000 0.917030
925.500000 0.919040
926.000000 0.920090
926.500000 0.919600
927.000000 0.921570
927.500000 0.898250
928.000000 0.866940
928.500000 0.858490
929.000000 0.846380
929.500000 0.827770
930.000000 0.791950
930.500000 0.758950
931.000000 0.727050
931.500000 0.693040
932.000000 0.630800
932.500000 0.607990
933.000000 0.612910
933.500000 0.593220
934.000000 0.526190
934.500000 0.499650
935.000000 0.567780
935.500000 0.586130
936.000000 0.561390
936.500000 0.567750
937.000000 0.552210
937.500000 0.579060
938.000000 0.585350
938.500000 0.590400
939.000000 0.657940
939.500000 0.728880
940.000000 0.716450
940.500000 0.675230
941.000000 0.665710
941.500000 0.681740
942.000000 0.672440
942.500000 0.610610
943.000000 0.564040
943.500000 0.594300
944.000000 0.564150
944.500000 0.542270
945.000000 0.608460
945.500000 0.619770
946.000000 0.582810
946.500000 0.598000
947.000000 0.636300
947.500000 0.631840
948.000000 0.582450
948.500000 0.602790
949.000000 0.675330
949.500000 0.636660
950.000000 0.583290
950.500000 0.623140
951.000000 0.695340
951.500000 0.686690
952.000000 0.610170
952.500000 0.591740
953.000000 0.635970
953.500000 0.662050
954.000000 0.669190
954.500000 0.659480
955.000000 0.664990
955.500000 0.655050
956.000000 0.644770
956.500000 0.647700
957.000000 0.655190
957.500000 0.703150
958.000000 0.707870
958.500000 0.685720
959.000000 0.666810
959.500000 0.652980
960.000000 0.676760
960.500000 0.696860
961.000000 0.710720
961.500000 0.724890
962.000000 0.708710
962.500000 0.680040
963.000000 0.702860
963.500000 0.724640
964.000000 0.715290
964.500000 0.715000
965.000000 0.726680
965.500000 0.745830
966.000000 0.732930
966.500000 0.706870
967.000000 0.718130
967.500000 0.764350
968.000000 0.779030
968.500000 0.764480
969.000000 0.772730
969.500000 0.781030
970.000000 0.772970
970.500000 0.768710
971.000000 0.775450
971.500000 0.766920
972.000000 0.762660
972.500000 0.759840
973.000000 0.749960
973.500000 0.741870
974.000000 0.737770
974.500000 0.728940
975.000000 0.721170
975.500000 0.721570
976.000000 0.716640
976.500000 0.721210
977.000000 0.736800
977.500000 0.742060
978.000000 0.732890
978.500000 0.726140
979.000000 0.722780
979.500000 0.717000
980.000000 0.717500
980.500000 0.718340
981.000000 0.730340
981.500000 0.731010
982.000000 0.724470
982.500000 0.716480
983.000000 0.711610
983.500000 0.716040
984.000000 0.717190
984.500000 0.710080
985.000000 0.702580
985.500000 0.701790
986.000000 0.702430
986.500000 0.699010
987.000000 0.692990
987.500000 0.688150
988.000000 0.685870
988.500000 0.684060
989.000000 0.680860
989.500000 0.676790
990.000000 0.672540
990.500000 0.669630
991.000000 0.666990
991.500000 0.662290
992.000000 0.657510
992.500000 0.652150
993.000000 0.646460
993.500000 0.630770
994.000000 0.615290
994.500000 0.599280
995.000000 0.583090
995.500000 0.551830
996.000000 0.520740
996.500000 0.489640
997.000000 0.458450
997.500000 0.416960
998.000000 0.375440
998.500000 0.333960
999.000000 0.292450
999.500000 0.257280
1000.000000 0.222230
1000.500000 0.187270
1001.000000 0.152150
1001.500000 0.130170
1002.000000 0.108250
1002.500000 0.086640
1003.000000 0.065030
1003.500000 0.055320
1004.000000 0.045550
1004.500000 0.035820
1005.000000 0.026100
1005.500000 0.022290
1006.000000 0.018480
1006.500000 0.014670
1007.000000 0.010860
1007.500000 0.009580
1008.000000 0.008300
1008.500000 0.007010
1009.000000 0.005730
1009.500000 0.005120
1010.000000 0.004530
1010.500000 0.003930
1011.000000 0.003330
1011.500000 0.002930
1012.000000 0.002520
1012.500000 0.002120
1013.000000 0.001710
1013.500000 0.001740
1014.000000 0.001770
1014.500000 0.000890
1015.000000 0.000000
