# CTIO DECam transmission (instrument+atmosphere)
# 	wavelength[nm] Thoughput
540.000000 0.000000
540.500000 0.001150
541.000000 0.002290
541.500000 0.002430
542.000000 0.002570
542.500000 0.002760
543.000000 0.002960
543.500000 0.003150
544.000000 0.003350
544.500000 0.003590
545.000000 0.003830
545.500000 0.004070
546.000000 0.004310
546.500000 0.004550
547.000000 0.004810
547.500000 0.005050
548.000000 0.005300
548.500000 0.005670
549.000000 0.006030
549.500000 0.006400
550.000000 0.006760
550.500000 0.007180
551.000000 0.007610
551.500000 0.008030
552.000000 0.008460
552.500000 0.008970
553.000000 0.009480
553.500000 0.010000
554.000000 0.010510
554.500000 0.011210
555.000000 0.011910
555.500000 0.012610
556.000000 0.013310
556.500000 0.014250
557.000000 0.015180
557.500000 0.016120
558.000000 0.017050
558.500000 0.018540
559.000000 0.020040
559.500000 0.021540
560.000000 0.023030
560.500000 0.026690
561.000000 0.030350
561.500000 0.034020
562.000000 0.037680
562.500000 0.051190
563.000000 0.064720
563.500000 0.078220
564.000000 0.091730
564.500000 0.135560
565.000000 0.179410
565.500000 0.223280
566.000000 0.267160
566.500000 0.335160
567.000000 0.403150
567.500000 0.471000
568.000000 0.538760
568.500000 0.570480
569.000000 0.602300
569.500000 0.634280
570.000000 0.666410
570.500000 0.671550
571.000000 0.676760
571.500000 0.681560
572.000000 0.686240
572.500000 0.688010
573.000000 0.689860
573.500000 0.691770
574.000000 0.693620
574.500000 0.695380
575.000000 0.697350
575.500000 0.699470
576.000000 0.701520
576.500000 0.703100
577.000000 0.704610
577.500000 0.706200
578.000000 0.707930
578.500000 0.709210
579.000000 0.710410
579.500000 0.711680
580.000000 0.712890
580.500000 0.715180
581.000000 0.717550
581.500000 0.719920
582.000000 0.722150
582.500000 0.723180
583.000000 0.724130
583.500000 0.725230
584.000000 0.726110
584.500000 0.725830
585.000000 0.725710
585.500000 0.725430
586.000000 0.725000
586.500000 0.724060
587.000000 0.723190
587.500000 0.721880
588.000000 0.720070
588.500000 0.718570
589.000000 0.717280
589.500000 0.717370
590.000000 0.717610
590.500000 0.720250
591.000000 0.722890
591.500000 0.723930
592.000000 0.724460
592.500000 0.725750
593.000000 0.728430
593.500000 0.730010
594.000000 0.729550
594.500000 0.727180
595.000000 0.727980
595.500000 0.729870
596.000000 0.730360
596.500000 0.730760
597.000000 0.730650
597.500000 0.731120
598.000000 0.731880
598.500000 0.733460
599.000000 0.734440
599.500000 0.735720
600.000000 0.736930
600.500000 0.738190
601.000000 0.739460
601.500000 0.740570
602.000000 0.741840
602.500000 0.742000
603.000000 0.742230
603.500000 0.744030
604.000000 0.745900
604.500000 0.746420
605.000000 0.746870
605.500000 0.747400
606.000000 0.748000
606.500000 0.747940
607.000000 0.747960
607.500000 0.748060
608.000000 0.748080
608.500000 0.748780
609.000000 0.749550
609.500000 0.750170
610.000000 0.750940
610.500000 0.752870
611.000000 0.754650
611.500000 0.756580
612.000000 0.758360
612.500000 0.760040
613.000000 0.761720
613.500000 0.763480
614.000000 0.765170
614.500000 0.766080
615.000000 0.766920
615.500000 0.767840
616.000000 0.768760
616.500000 0.769820
617.000000 0.770790
617.500000 0.771770
618.000000 0.772830
618.500000 0.773180
619.000000 0.773600
619.500000 0.773950
620.000000 0.774130
620.500000 0.774660
621.000000 0.775190
621.500000 0.775800
622.000000 0.776240
622.500000 0.777020
623.000000 0.777710
623.500000 0.778490
624.000000 0.779190
624.500000 0.779680
625.000000 0.780260
625.500000 0.780760
626.000000 0.781180
626.500000 0.781700
627.000000 0.781270
627.500000 0.773710
628.000000 0.761760
628.500000 0.766740
629.000000 0.775180
629.500000 0.776020
630.000000 0.777800
630.500000 0.781300
631.000000 0.784180
631.500000 0.786580
632.000000 0.788600
632.500000 0.790010
633.000000 0.791030
633.500000 0.791900
634.000000 0.792450
634.500000 0.793660
635.000000 0.794870
635.500000 0.796250
636.000000 0.797380
636.500000 0.798780
637.000000 0.799860
637.500000 0.801260
638.000000 0.802590
638.500000 0.803090
639.000000 0.803430
639.500000 0.803940
640.000000 0.804280
640.500000 0.804910
641.000000 0.805540
641.500000 0.806180
642.000000 0.806730
642.500000 0.806970
643.000000 0.807300
643.500000 0.807460
644.000000 0.807710
644.500000 0.807790
645.000000 0.807870
645.500000 0.807700
646.000000 0.807210
646.500000 0.806900
647.000000 0.806180
647.500000 0.805300
648.000000 0.805640
648.500000 0.806670
649.000000 0.807610
649.500000 0.808320
650.000000 0.810080
650.500000 0.811600
651.000000 0.811420
651.500000 0.809200
652.000000 0.808700
652.500000 0.812050
653.000000 0.814520
653.500000 0.815510
654.000000 0.816680
654.500000 0.817200
655.000000 0.817890
655.500000 0.819230
656.000000 0.820910
656.500000 0.822040
657.000000 0.823010
657.500000 0.823560
658.000000 0.824690
658.500000 0.825400
659.000000 0.826100
659.500000 0.826890
660.000000 0.827180
660.500000 0.827400
661.000000 0.827700
661.500000 0.827990
662.000000 0.828130
662.500000 0.827880
663.000000 0.827470
663.500000 0.827390
664.000000 0.827060
664.500000 0.827370
665.000000 0.827670
665.500000 0.828070
666.000000 0.828380
666.500000 0.829630
667.000000 0.830880
667.500000 0.832130
668.000000 0.833300
668.500000 0.834540
669.000000 0.835610
669.500000 0.836770
670.000000 0.837920
670.500000 0.838380
671.000000 0.838920
671.500000 0.839550
672.000000 0.840000
672.500000 0.840070
673.000000 0.840060
673.500000 0.840130
674.000000 0.840120
674.500000 0.840030
675.000000 0.839860
675.500000 0.839510
676.000000 0.839340
676.500000 0.839470
677.000000 0.839610
677.500000 0.839910
678.000000 0.840050
678.500000 0.840680
679.000000 0.841310
679.500000 0.842120
680.000000 0.842750
680.500000 0.842960
681.000000 0.843340
681.500000 0.843720
682.000000 0.844100
682.500000 0.844440
683.000000 0.844780
683.500000 0.845110
684.000000 0.845280
684.500000 0.845490
685.000000 0.845700
685.500000 0.845740
686.000000 0.841040
686.500000 0.797780
687.000000 0.691070
687.500000 0.640950
688.000000 0.698180
688.500000 0.745690
689.000000 0.732960
689.500000 0.732420
690.000000 0.749990
690.500000 0.763820
691.000000 0.779930
691.500000 0.792310
692.000000 0.803010
692.500000 0.814060
693.000000 0.822420
693.500000 0.825880
694.000000 0.826640
694.500000 0.828350
695.000000 0.831250
695.500000 0.832910
696.000000 0.832620
696.500000 0.836420
697.000000 0.840980
697.500000 0.841900
698.000000 0.841140
698.500000 0.838940
699.000000 0.835810
699.500000 0.835880
700.000000 0.837570
700.500000 0.837970
701.000000 0.837960
701.500000 0.838530
702.000000 0.839110
702.500000 0.837940
703.000000 0.837780
703.500000 0.839380
704.000000 0.837950
704.500000 0.836370
705.000000 0.834700
705.500000 0.832620
706.000000 0.831450
706.500000 0.827940
707.000000 0.824420
707.500000 0.820310
708.000000 0.816210
708.500000 0.810380
709.000000 0.804300
709.500000 0.797970
710.000000 0.791240
710.500000 0.785510
711.000000 0.780010
711.500000 0.774510
712.000000 0.768850
712.500000 0.738310
713.000000 0.707560
713.500000 0.677170
714.000000 0.646710
714.500000 0.575800
715.000000 0.504830
715.500000 0.434260
716.000000 0.363300
716.500000 0.304350
717.000000 0.243910
717.500000 0.185420
718.000000 0.129880
718.500000 0.106220
719.000000 0.083630
719.500000 0.062100
720.000000 0.040460
720.500000 0.033600
721.000000 0.026990
721.500000 0.020030
722.000000 0.012560
722.500000 0.011140
723.000000 0.009610
723.500000 0.008060
724.000000 0.006710
724.500000 0.005680
725.000000 0.004660
725.500000 0.003630
726.000000 0.002600
726.500000 0.002250
727.000000 0.001910
727.500000 0.001550
728.000000 0.001210
728.500000 0.001100
729.000000 0.000960
729.500000 0.000830
730.000000 0.000710
730.500000 0.000660
731.000000 0.000610
731.500000 0.000560
732.000000 0.000520
732.500000 0.000490
733.000000 0.000460
733.500000 0.000430
734.000000 0.000400
734.500000 0.000200
735.000000 0.000000
