# Huble Space Telescope Throughput
# By 03-28-2022
# https://www.stsci.edu/hst/instrumentation/wfc3/documentation/grism-resources/wfc3-g141-calibrations
# With modification: Throughput = sensitivity * unit('erg cm-2') * photon_energy / area
# Wavelength(nm) Throughput(0-1)
995.00 0.00000
995.10 0.00000
995.20 0.00000
995.30 0.00125
995.40 0.00126
995.50 0.00127
995.60 0.00128
995.70 0.00129
995.80 0.00130
995.90 0.00131
996.00 0.00132
996.10 0.00133
996.20 0.00134
996.30 0.00135
996.40 0.00136
996.50 0.00136
996.60 0.00137
996.70 0.00138
996.80 0.00139
996.90 0.00140
997.00 0.00141
997.10 0.00142
997.20 0.00143
997.30 0.00144
997.40 0.00145
997.50 0.00146
997.60 0.00147
997.70 0.00148
997.80 0.00149
997.90 0.00150
998.00 0.00151
998.10 0.00152
998.20 0.00153
998.30 0.00154
998.40 0.00155
998.50 0.00156
998.60 0.00157
998.70 0.00158
998.80 0.00159
998.90 0.00160
999.00 0.00161
999.10 0.00162
999.20 0.00163
999.30 0.00164
999.40 0.00165
999.50 0.00166
999.60 0.00167
999.70 0.00168
999.80 0.00170
999.90 0.00171
1000.00 0.00172
1000.10 0.00173
1000.20 0.00174
1000.30 0.00175
1000.40 0.00176
1000.50 0.00177
1000.60 0.00178
1000.70 0.00179
1000.80 0.00180
1000.90 0.00181
1001.00 0.00182
1001.10 0.00182
1001.20 0.00183
1001.30 0.00184
1001.40 0.00185
1001.50 0.00186
1001.60 0.00187
1001.70 0.00187
1001.80 0.00188
1001.90 0.00189
1002.00 0.00190
1002.10 0.00191
1002.20 0.00191
1002.30 0.00192
1002.40 0.00193
1002.50 0.00194
1002.60 0.00194
1002.70 0.00195
1002.80 0.00196
1002.90 0.00197
1003.00 0.00197
1003.10 0.00198
1003.20 0.00199
1003.30 0.00200
1003.40 0.00200
1003.50 0.00201
1003.60 0.00202
1003.70 0.00202
1003.80 0.00203
1003.90 0.00204
1004.00 0.00204
1004.10 0.00205
1004.20 0.00206
1004.30 0.00206
1004.40 0.00207
1004.50 0.00208
1004.60 0.00208
1004.70 0.00209
1004.80 0.00210
1004.90 0.00210
1005.00 0.00211
1005.10 0.00212
1005.20 0.00212
1005.30 0.00213
1005.40 0.00213
1005.50 0.00214
1005.60 0.00214
1005.70 0.00215
1005.80 0.00215
1005.90 0.00216
1006.00 0.00216
1006.10 0.00217
1006.20 0.00217
1006.30 0.00218
1006.40 0.00218
1006.50 0.00219
1006.60 0.00219
1006.70 0.00220
1006.80 0.00220
1006.90 0.00220
1007.00 0.00221
1007.10 0.00221
1007.20 0.00222
1007.30 0.00222
1007.40 0.00222
1007.50 0.00223
1007.60 0.00223
1007.70 0.00223
1007.80 0.00224
1007.90 0.00224
1008.00 0.00224
1008.10 0.00225
1008.20 0.00225
1008.30 0.00225
1008.40 0.00226
1008.50 0.00226
1008.60 0.00226
1008.70 0.00227
1008.80 0.00227
1008.90 0.00227
1009.00 0.00227
1009.10 0.00228
1009.20 0.00228
1009.30 0.00228
1009.40 0.00228
1009.50 0.00228
1009.60 0.00229
1009.70 0.00229
1009.80 0.00229
1009.90 0.00229
1010.00 0.00229
1010.10 0.00230
1010.20 0.00230
1010.30 0.00230
1010.40 0.00230
1010.50 0.00231
1010.60 0.00231
1010.70 0.00231
1010.80 0.00231
1010.90 0.00232
1011.00 0.00232
1011.10 0.00232
1011.20 0.00232
1011.30 0.00232
1011.40 0.00233
1011.50 0.00233
1011.60 0.00233
1011.70 0.00233
1011.80 0.00234
1011.90 0.00234
1012.00 0.00234
1012.10 0.00234
1012.20 0.00234
1012.30 0.00235
1012.40 0.00235
1012.50 0.00235
1012.60 0.00235
1012.70 0.00235
1012.80 0.00235
1012.90 0.00236
1013.00 0.00236
1013.10 0.00236
1013.20 0.00236
1013.30 0.00236
1013.40 0.00236
1013.50 0.00237
1013.60 0.00237
1013.70 0.00237
1013.80 0.00237
1013.90 0.00237
1014.00 0.00237
1014.10 0.00237
1014.20 0.00237
1014.30 0.00238
1014.40 0.00238
1014.50 0.00238
1014.60 0.00238
1014.70 0.00238
1014.80 0.00239
1014.90 0.00239
1015.00 0.00240
1015.10 0.00240
1015.20 0.00241
1015.30 0.00241
1015.40 0.00242
1015.50 0.00242
1015.60 0.00243
1015.70 0.00243
1015.80 0.00244
1015.90 0.00244
1016.00 0.00245
1016.10 0.00245
1016.20 0.00246
1016.30 0.00247
1016.40 0.00247
1016.50 0.00248
1016.60 0.00248
1016.70 0.00249
1016.80 0.00250
1016.90 0.00250
1017.00 0.00251
1017.10 0.00252
1017.20 0.00253
1017.30 0.00253
1017.40 0.00254
1017.50 0.00255
1017.60 0.00255
1017.70 0.00256
1017.80 0.00257
1017.90 0.00258
1018.00 0.00258
1018.10 0.00259
1018.20 0.00260
1018.30 0.00261
1018.40 0.00262
1018.50 0.00263
1018.60 0.00263
1018.70 0.00264
1018.80 0.00265
1018.90 0.00266
1019.00 0.00267
1019.10 0.00268
1019.20 0.00269
1019.30 0.00270
1019.40 0.00271
1019.50 0.00272
1019.60 0.00273
1019.70 0.00275
1019.80 0.00276
1019.90 0.00277
1020.00 0.00279
1020.10 0.00280
1020.20 0.00282
1020.30 0.00283
1020.40 0.00285
1020.50 0.00286
1020.60 0.00288
1020.70 0.00289
1020.80 0.00291
1020.90 0.00293
1021.00 0.00294
1021.10 0.00296
1021.20 0.00298
1021.30 0.00299
1021.40 0.00301
1021.50 0.00303
1021.60 0.00304
1021.70 0.00306
1021.80 0.00308
1021.90 0.00310
1022.00 0.00312
1022.10 0.00314
1022.20 0.00316
1022.30 0.00318
1022.40 0.00320
1022.50 0.00322
1022.60 0.00324
1022.70 0.00326
1022.80 0.00328
1022.90 0.00330
1023.00 0.00332
1023.10 0.00334
1023.20 0.00336
1023.30 0.00338
1023.40 0.00341
1023.50 0.00343
1023.60 0.00345
1023.70 0.00347
1023.80 0.00350
1023.90 0.00352
1024.00 0.00354
1024.10 0.00357
1024.20 0.00359
1024.30 0.00361
1024.40 0.00364
1024.50 0.00366
1024.60 0.00368
1024.70 0.00371
1024.80 0.00373
1024.90 0.00375
1025.00 0.00378
1025.10 0.00380
1025.20 0.00383
1025.30 0.00385
1025.40 0.00388
1025.50 0.00390
1025.60 0.00393
1025.70 0.00396
1025.80 0.00398
1025.90 0.00401
1026.00 0.00403
1026.10 0.00406
1026.20 0.00409
1026.30 0.00411
1026.40 0.00414
1026.50 0.00417
1026.60 0.00420
1026.70 0.00422
1026.80 0.00425
1026.90 0.00428
1027.00 0.00431
1027.10 0.00434
1027.20 0.00437
1027.30 0.00440
1027.40 0.00442
1027.50 0.00445
1027.60 0.00448
1027.70 0.00451
1027.80 0.00454
1027.90 0.00457
1028.00 0.00460
1028.10 0.00463
1028.20 0.00466
1028.30 0.00469
1028.40 0.00473
1028.50 0.00476
1028.60 0.00479
1028.70 0.00482
1028.80 0.00484
1028.90 0.00487
1029.00 0.00490
1029.10 0.00493
1029.20 0.00496
1029.30 0.00498
1029.40 0.00501
1029.50 0.00504
1029.60 0.00507
1029.70 0.00510
1029.80 0.00512
1029.90 0.00515
1030.00 0.00518
1030.10 0.00521
1030.20 0.00524
1030.30 0.00526
1030.40 0.00529
1030.50 0.00532
1030.60 0.00535
1030.70 0.00538
1030.80 0.00541
1030.90 0.00543
1031.00 0.00546
1031.10 0.00549
1031.20 0.00552
1031.30 0.00555
1031.40 0.00558
1031.50 0.00561
1031.60 0.00563
1031.70 0.00566
1031.80 0.00569
1031.90 0.00572
1032.00 0.00575
1032.10 0.00578
1032.20 0.00581
1032.30 0.00584
1032.40 0.00586
1032.50 0.00589
1032.60 0.00592
1032.70 0.00595
1032.80 0.00598
1032.90 0.00601
1033.00 0.00604
1033.10 0.00607
1033.20 0.00610
1033.30 0.00612
1033.40 0.00615
1033.50 0.00618
1033.60 0.00621
1033.70 0.00623
1033.80 0.00626
1033.90 0.00629
1034.00 0.00631
1034.10 0.00634
1034.20 0.00637
1034.30 0.00639
1034.40 0.00642
1034.50 0.00645
1034.60 0.00647
1034.70 0.00650
1034.80 0.00653
1034.90 0.00655
1035.00 0.00658
1035.10 0.00661
1035.20 0.00663
1035.30 0.00666
1035.40 0.00669
1035.50 0.00671
1035.60 0.00674
1035.70 0.00676
1035.80 0.00679
1035.90 0.00682
1036.00 0.00684
1036.10 0.00687
1036.20 0.00689
1036.30 0.00692
1036.40 0.00695
1036.50 0.00697
1036.60 0.00700
1036.70 0.00702
1036.80 0.00705
1036.90 0.00707
1037.00 0.00710
1037.10 0.00712
1037.20 0.00715
1037.30 0.00718
1037.40 0.00720
1037.50 0.00723
1037.60 0.00725
1037.70 0.00728
1037.80 0.00730
1037.90 0.00733
1038.00 0.00736
1038.10 0.00739
1038.20 0.00742
1038.30 0.00745
1038.40 0.00748
1038.50 0.00751
1038.60 0.00754
1038.70 0.00757
1038.80 0.00760
1038.90 0.00763
1039.00 0.00766
1039.10 0.00769
1039.20 0.00772
1039.30 0.00776
1039.40 0.00779
1039.50 0.00782
1039.60 0.00785
1039.70 0.00788
1039.80 0.00792
1039.90 0.00795
1040.00 0.00798
1040.10 0.00801
1040.20 0.00805
1040.30 0.00808
1040.40 0.00811
1040.50 0.00815
1040.60 0.00818
1040.70 0.00821
1040.80 0.00825
1040.90 0.00828
1041.00 0.00831
1041.10 0.00835
1041.20 0.00838
1041.30 0.00842
1041.40 0.00845
1041.50 0.00849
1041.60 0.00852
1041.70 0.00856
1041.80 0.00859
1041.90 0.00863
1042.00 0.00866
1042.10 0.00870
1042.20 0.00873
1042.30 0.00877
1042.40 0.00881
1042.50 0.00884
1042.60 0.00889
1042.70 0.00894
1042.80 0.00899
1042.90 0.00904
1043.00 0.00909
1043.10 0.00914
1043.20 0.00920
1043.30 0.00925
1043.40 0.00931
1043.50 0.00936
1043.60 0.00942
1043.70 0.00947
1043.80 0.00953
1043.90 0.00959
1044.00 0.00965
1044.10 0.00971
1044.20 0.00977
1044.30 0.00983
1044.40 0.00989
1044.50 0.00996
1044.60 0.01002
1044.70 0.01008
1044.80 0.01015
1044.90 0.01021
1045.00 0.01028
1045.10 0.01035
1045.20 0.01041
1045.30 0.01048
1045.40 0.01055
1045.50 0.01062
1045.60 0.01069
1045.70 0.01076
1045.80 0.01083
1045.90 0.01091
1046.00 0.01098
1046.10 0.01105
1046.20 0.01113
1046.30 0.01120
1046.40 0.01128
1046.50 0.01136
1046.60 0.01143
1046.70 0.01151
1046.80 0.01159
1046.90 0.01167
1047.00 0.01175
1047.10 0.01183
1047.20 0.01191
1047.30 0.01200
1047.40 0.01208
1047.50 0.01217
1047.60 0.01226
1047.70 0.01235
1047.80 0.01244
1047.90 0.01253
1048.00 0.01262
1048.10 0.01271
1048.20 0.01281
1048.30 0.01290
1048.40 0.01300
1048.50 0.01309
1048.60 0.01319
1048.70 0.01329
1048.80 0.01339
1048.90 0.01348
1049.00 0.01358
1049.10 0.01369
1049.20 0.01379
1049.30 0.01389
1049.40 0.01399
1049.50 0.01410
1049.60 0.01420
1049.70 0.01431
1049.80 0.01442
1049.90 0.01452
1050.00 0.01463
1050.10 0.01474
1050.20 0.01485
1050.30 0.01496
1050.40 0.01507
1050.50 0.01519
1050.60 0.01530
1050.70 0.01541
1050.80 0.01553
1050.90 0.01565
1051.00 0.01576
1051.10 0.01588
1051.20 0.01600
1051.30 0.01612
1051.40 0.01624
1051.50 0.01636
1051.60 0.01648
1051.70 0.01660
1051.80 0.01673
1051.90 0.01685
1052.00 0.01696
1052.10 0.01708
1052.20 0.01719
1052.30 0.01731
1052.40 0.01742
1052.50 0.01754
1052.60 0.01765
1052.70 0.01777
1052.80 0.01789
1052.90 0.01801
1053.00 0.01813
1053.10 0.01824
1053.20 0.01836
1053.30 0.01848
1053.40 0.01860
1053.50 0.01872
1053.60 0.01884
1053.70 0.01896
1053.80 0.01909
1053.90 0.01921
1054.00 0.01933
1054.10 0.01945
1054.20 0.01958
1054.30 0.01970
1054.40 0.01982
1054.50 0.01995
1054.60 0.02007
1054.70 0.02020
1054.80 0.02032
1054.90 0.02045
1055.00 0.02057
1055.10 0.02070
1055.20 0.02083
1055.30 0.02095
1055.40 0.02108
1055.50 0.02121
1055.60 0.02134
1055.70 0.02147
1055.80 0.02160
1055.90 0.02173
1056.00 0.02186
1056.10 0.02199
1056.20 0.02212
1056.30 0.02225
1056.40 0.02238
1056.50 0.02251
1056.60 0.02263
1056.70 0.02276
1056.80 0.02288
1056.90 0.02301
1057.00 0.02313
1057.10 0.02325
1057.20 0.02338
1057.30 0.02350
1057.40 0.02362
1057.50 0.02375
1057.60 0.02387
1057.70 0.02399
1057.80 0.02412
1057.90 0.02424
1058.00 0.02437
1058.10 0.02449
1058.20 0.02461
1058.30 0.02474
1058.40 0.02486
1058.50 0.02499
1058.60 0.02511
1058.70 0.02523
1058.80 0.02536
1058.90 0.02548
1059.00 0.02561
1059.10 0.02573
1059.20 0.02585
1059.30 0.02598
1059.40 0.02610
1059.50 0.02623
1059.60 0.02635
1059.70 0.02647
1059.80 0.02660
1059.90 0.02672
1060.00 0.02685
1060.10 0.02697
1060.20 0.02710
1060.30 0.02722
1060.40 0.02734
1060.50 0.02747
1060.60 0.02759
1060.70 0.02772
1060.80 0.02784
1060.90 0.02797
1061.00 0.02809
1061.10 0.02822
1061.20 0.02834
1061.30 0.02848
1061.40 0.02861
1061.50 0.02874
1061.60 0.02888
1061.70 0.02901
1061.80 0.02914
1061.90 0.02928
1062.00 0.02941
1062.10 0.02955
1062.20 0.02968
1062.30 0.02982
1062.40 0.02996
1062.50 0.03009
1062.60 0.03023
1062.70 0.03037
1062.80 0.03050
1062.90 0.03064
1063.00 0.03078
1063.10 0.03092
1063.20 0.03106
1063.30 0.03120
1063.40 0.03134
1063.50 0.03148
1063.60 0.03162
1063.70 0.03176
1063.80 0.03190
1063.90 0.03204
1064.00 0.03218
1064.10 0.03233
1064.20 0.03247
1064.30 0.03261
1064.40 0.03275
1064.50 0.03290
1064.60 0.03304
1064.70 0.03319
1064.80 0.03333
1064.90 0.03347
1065.00 0.03362
1065.10 0.03377
1065.20 0.03391
1065.30 0.03406
1065.40 0.03420
1065.50 0.03435
1065.60 0.03450
1065.70 0.03465
1065.80 0.03479
1065.90 0.03498
1066.00 0.03518
1066.10 0.03537
1066.20 0.03557
1066.30 0.03577
1066.40 0.03597
1066.50 0.03617
1066.60 0.03638
1066.70 0.03658
1066.80 0.03679
1066.90 0.03700
1067.00 0.03722
1067.10 0.03743
1067.20 0.03765
1067.30 0.03787
1067.40 0.03809
1067.50 0.03832
1067.60 0.03854
1067.70 0.03877
1067.80 0.03900
1067.90 0.03924
1068.00 0.03947
1068.10 0.03971
1068.20 0.03995
1068.30 0.04019
1068.40 0.04043
1068.50 0.04067
1068.60 0.04092
1068.70 0.04117
1068.80 0.04142
1068.90 0.04168
1069.00 0.04193
1069.10 0.04219
1069.20 0.04245
1069.30 0.04271
1069.40 0.04297
1069.50 0.04324
1069.60 0.04351
1069.70 0.04378
1069.80 0.04405
1069.90 0.04433
1070.00 0.04460
1070.10 0.04488
1070.20 0.04516
1070.30 0.04544
1070.40 0.04573
1070.50 0.04604
1070.60 0.04638
1070.70 0.04672
1070.80 0.04707
1070.90 0.04742
1071.00 0.04777
1071.10 0.04813
1071.20 0.04849
1071.30 0.04886
1071.40 0.04923
1071.50 0.04960
1071.60 0.04998
1071.70 0.05036
1071.80 0.05075
1071.90 0.05114
1072.00 0.05154
1072.10 0.05194
1072.20 0.05234
1072.30 0.05275
1072.40 0.05316
1072.50 0.05357
1072.60 0.05399
1072.70 0.05442
1072.80 0.05485
1072.90 0.05528
1073.00 0.05571
1073.10 0.05615
1073.20 0.05660
1073.30 0.05704
1073.40 0.05750
1073.50 0.05795
1073.60 0.05841
1073.70 0.05888
1073.80 0.05935
1073.90 0.05982
1074.00 0.06029
1074.10 0.06078
1074.20 0.06126
1074.30 0.06175
1074.40 0.06224
1074.50 0.06274
1074.60 0.06324
1074.70 0.06374
1074.80 0.06425
1074.90 0.06476
1075.00 0.06528
1075.10 0.06580
1075.20 0.06633
1075.30 0.06685
1075.40 0.06738
1075.50 0.06792
1075.60 0.06846
1075.70 0.06900
1075.80 0.06954
1075.90 0.07009
1076.00 0.07065
1076.10 0.07121
1076.20 0.07177
1076.30 0.07234
1076.40 0.07291
1076.50 0.07348
1076.60 0.07406
1076.70 0.07464
1076.80 0.07522
1076.90 0.07581
1077.00 0.07641
1077.10 0.07701
1077.20 0.07761
1077.30 0.07821
1077.40 0.07882
1077.50 0.07943
1077.60 0.08005
1077.70 0.08067
1077.80 0.08130
1077.90 0.08193
1078.00 0.08256
1078.10 0.08320
1078.20 0.08384
1078.30 0.08448
1078.40 0.08513
1078.50 0.08578
1078.60 0.08644
1078.70 0.08710
1078.80 0.08776
1078.90 0.08843
1079.00 0.08910
1079.10 0.08978
1079.20 0.09046
1079.30 0.09114
1079.40 0.09183
1079.50 0.09252
1079.60 0.09321
1079.70 0.09391
1079.80 0.09458
1079.90 0.09522
1080.00 0.09587
1080.10 0.09651
1080.20 0.09715
1080.30 0.09780
1080.40 0.09845
1080.50 0.09909
1080.60 0.09974
1080.70 0.10039
1080.80 0.10104
1080.90 0.10170
1081.00 0.10235
1081.10 0.10300
1081.20 0.10366
1081.30 0.10432
1081.40 0.10498
1081.50 0.10564
1081.60 0.10630
1081.70 0.10696
1081.80 0.10762
1081.90 0.10829
1082.00 0.10895
1082.10 0.10962
1082.20 0.11029
1082.30 0.11095
1082.40 0.11162
1082.50 0.11230
1082.60 0.11297
1082.70 0.11364
1082.80 0.11432
1082.90 0.11499
1083.00 0.11567
1083.10 0.11635
1083.20 0.11703
1083.30 0.11771
1083.40 0.11839
1083.50 0.11907
1083.60 0.11976
1083.70 0.12044
1083.80 0.12113
1083.90 0.12182
1084.00 0.12250
1084.10 0.12319
1084.20 0.12388
1084.30 0.12458
1084.40 0.12527
1084.50 0.12589
1084.60 0.12652
1084.70 0.12714
1084.80 0.12776
1084.90 0.12837
1085.00 0.12899
1085.10 0.12960
1085.20 0.13022
1085.30 0.13083
1085.40 0.13143
1085.50 0.13204
1085.60 0.13264
1085.70 0.13325
1085.80 0.13385
1085.90 0.13445
1086.00 0.13505
1086.10 0.13564
1086.20 0.13624
1086.30 0.13683
1086.40 0.13742
1086.50 0.13801
1086.60 0.13859
1086.70 0.13918
1086.80 0.13976
1086.90 0.14035
1087.00 0.14093
1087.10 0.14150
1087.20 0.14208
1087.30 0.14265
1087.40 0.14323
1087.50 0.14380
1087.60 0.14437
1087.70 0.14494
1087.80 0.14550
1087.90 0.14607
1088.00 0.14663
1088.10 0.14719
1088.20 0.14775
1088.30 0.14830
1088.40 0.14886
1088.50 0.14941
1088.60 0.14996
1088.70 0.15051
1088.80 0.15106
1088.90 0.15161
1089.00 0.15215
1089.10 0.15270
1089.20 0.15324
1089.30 0.15378
1089.40 0.15432
1089.50 0.15485
1089.60 0.15539
1089.70 0.15592
1089.80 0.15645
1089.90 0.15698
1090.00 0.15750
1090.10 0.15803
1090.20 0.15855
1090.30 0.15907
1090.40 0.15960
1090.50 0.16011
1090.60 0.16063
1090.70 0.16114
1090.80 0.16166
1090.90 0.16217
1091.00 0.16268
1091.10 0.16319
1091.20 0.16369
1091.30 0.16420
1091.40 0.16470
1091.50 0.16520
1091.60 0.16570
1091.70 0.16620
1091.80 0.16669
1091.90 0.16719
1092.00 0.16768
1092.10 0.16817
1092.20 0.16866
1092.30 0.16914
1092.40 0.16963
1092.50 0.17011
1092.60 0.17059
1092.70 0.17107
1092.80 0.17155
1092.90 0.17203
1093.00 0.17250
1093.10 0.17298
1093.20 0.17345
1093.30 0.17392
1093.40 0.17439
1093.50 0.17485
1093.60 0.17532
1093.70 0.17578
1093.80 0.17630
1093.90 0.17683
1094.00 0.17736
1094.10 0.17788
1094.20 0.17841
1094.30 0.17894
1094.40 0.17947
1094.50 0.18000
1094.60 0.18054
1094.70 0.18107
1094.80 0.18160
1094.90 0.18214
1095.00 0.18267
1095.10 0.18321
1095.20 0.18375
1095.30 0.18429
1095.40 0.18483
1095.50 0.18537
1095.60 0.18591
1095.70 0.18645
1095.80 0.18700
1095.90 0.18754
1096.00 0.18809
1096.10 0.18863
1096.20 0.18918
1096.30 0.18973
1096.40 0.19028
1096.50 0.19083
1096.60 0.19138
1096.70 0.19193
1096.80 0.19248
1096.90 0.19304
1097.00 0.19359
1097.10 0.19415
1097.20 0.19470
1097.30 0.19526
1097.40 0.19582
1097.50 0.19638
1097.60 0.19694
1097.70 0.19750
1097.80 0.19806
1097.90 0.19863
1098.00 0.19919
1098.10 0.19976
1098.20 0.20032
1098.30 0.20089
1098.40 0.20147
1098.50 0.20207
1098.60 0.20267
1098.70 0.20327
1098.80 0.20387
1098.90 0.20448
1099.00 0.20508
1099.10 0.20569
1099.20 0.20630
1099.30 0.20692
1099.40 0.20753
1099.50 0.20815
1099.60 0.20877
1099.70 0.20939
1099.80 0.21002
1099.90 0.21064
1100.00 0.21127
1100.10 0.21190
1100.20 0.21253
1100.30 0.21317
1100.40 0.21380
1100.50 0.21444
1100.60 0.21508
1100.70 0.21573
1100.80 0.21637
1100.90 0.21702
1101.00 0.21767
1101.10 0.21832
1101.20 0.21897
1101.30 0.21962
1101.40 0.22028
1101.50 0.22094
1101.60 0.22160
1101.70 0.22227
1101.80 0.22293
1101.90 0.22360
1102.00 0.22427
1102.10 0.22494
1102.20 0.22561
1102.30 0.22629
1102.40 0.22697
1102.50 0.22765
1102.60 0.22833
1102.70 0.22901
1102.80 0.22970
1102.90 0.23039
1103.00 0.23108
1103.10 0.23172
1103.20 0.23236
1103.30 0.23301
1103.40 0.23365
1103.50 0.23430
1103.60 0.23494
1103.70 0.23559
1103.80 0.23623
1103.90 0.23687
1104.00 0.23752
1104.10 0.23816
1104.20 0.23881
1104.30 0.23945
1104.40 0.24010
1104.50 0.24074
1104.60 0.24139
1104.70 0.24203
1104.80 0.24268
1104.90 0.24332
1105.00 0.24397
1105.10 0.24461
1105.20 0.24526
1105.30 0.24590
1105.40 0.24655
1105.50 0.24719
1105.60 0.24784
1105.70 0.24848
1105.80 0.24913
1105.90 0.24977
1106.00 0.25042
1106.10 0.25106
1106.20 0.25171
1106.30 0.25236
1106.40 0.25300
1106.50 0.25365
1106.60 0.25429
1106.70 0.25494
1106.80 0.25558
1106.90 0.25623
1107.00 0.25688
1107.10 0.25752
1107.20 0.25817
1107.30 0.25881
1107.40 0.25946
1107.50 0.26011
1107.60 0.26075
1107.70 0.26136
1107.80 0.26193
1107.90 0.26249
1108.00 0.26305
1108.10 0.26361
1108.20 0.26416
1108.30 0.26472
1108.40 0.26526
1108.50 0.26581
1108.60 0.26635
1108.70 0.26689
1108.80 0.26743
1108.90 0.26796
1109.00 0.26849
1109.10 0.26901
1109.20 0.26954
1109.30 0.27005
1109.40 0.27057
1109.50 0.27108
1109.60 0.27159
1109.70 0.27210
1109.80 0.27261
1109.90 0.27311
1110.00 0.27360
1110.10 0.27410
1110.20 0.27459
1110.30 0.27508
1110.40 0.27556
1110.50 0.27604
1110.60 0.27652
1110.70 0.27700
1110.80 0.27747
1110.90 0.27794
1111.00 0.27840
1111.10 0.27886
1111.20 0.27932
1111.30 0.27978
1111.40 0.28023
1111.50 0.28068
1111.60 0.28113
1111.70 0.28157
1111.80 0.28201
1111.90 0.28245
1112.00 0.28288
1112.10 0.28332
1112.20 0.28374
1112.30 0.28417
1112.40 0.28457
1112.50 0.28497
1112.60 0.28536
1112.70 0.28575
1112.80 0.28613
1112.90 0.28651
1113.00 0.28689
1113.10 0.28726
1113.20 0.28763
1113.30 0.28799
1113.40 0.28836
1113.50 0.28871
1113.60 0.28906
1113.70 0.28941
1113.80 0.28976
1113.90 0.29010
1114.00 0.29044
1114.10 0.29077
1114.20 0.29110
1114.30 0.29142
1114.40 0.29174
1114.50 0.29206
1114.60 0.29237
1114.70 0.29268
1114.80 0.29298
1114.90 0.29328
1115.00 0.29358
1115.10 0.29387
1115.20 0.29416
1115.30 0.29445
1115.40 0.29473
1115.50 0.29500
1115.60 0.29528
1115.70 0.29555
1115.80 0.29581
1115.90 0.29607
1116.00 0.29633
1116.10 0.29658
1116.20 0.29683
1116.30 0.29707
1116.40 0.29732
1116.50 0.29755
1116.60 0.29779
1116.70 0.29801
1116.80 0.29824
1116.90 0.29846
1117.00 0.29869
1117.10 0.29893
1117.20 0.29917
1117.30 0.29941
1117.40 0.29964
1117.50 0.29987
1117.60 0.30010
1117.70 0.30032
1117.80 0.30054
1117.90 0.30076
1118.00 0.30098
1118.10 0.30119
1118.20 0.30140
1118.30 0.30161
1118.40 0.30181
1118.50 0.30202
1118.60 0.30221
1118.70 0.30241
1118.80 0.30261
1118.90 0.30280
1119.00 0.30298
1119.10 0.30317
1119.20 0.30335
1119.30 0.30353
1119.40 0.30371
1119.50 0.30388
1119.60 0.30405
1119.70 0.30422
1119.80 0.30439
1119.90 0.30455
1120.00 0.30471
1120.10 0.30487
1120.20 0.30502
1120.30 0.30517
1120.40 0.30532
1120.50 0.30547
1120.60 0.30561
1120.70 0.30575
1120.80 0.30589
1120.90 0.30603
1121.00 0.30616
1121.10 0.30629
1121.20 0.30642
1121.30 0.30654
1121.40 0.30666
1121.50 0.30678
1121.60 0.30690
1121.70 0.30704
1121.80 0.30719
1121.90 0.30734
1122.00 0.30749
1122.10 0.30763
1122.20 0.30777
1122.30 0.30792
1122.40 0.30806
1122.50 0.30820
1122.60 0.30834
1122.70 0.30847
1122.80 0.30861
1122.90 0.30874
1123.00 0.30888
1123.10 0.30901
1123.20 0.30914
1123.30 0.30927
1123.40 0.30940
1123.50 0.30953
1123.60 0.30965
1123.70 0.30978
1123.80 0.30990
1123.90 0.31002
1124.00 0.31015
1124.10 0.31027
1124.20 0.31038
1124.30 0.31050
1124.40 0.31062
1124.50 0.31073
1124.60 0.31085
1124.70 0.31096
1124.80 0.31107
1124.90 0.31118
1125.00 0.31129
1125.10 0.31140
1125.20 0.31151
1125.30 0.31161
1125.40 0.31171
1125.50 0.31182
1125.60 0.31192
1125.70 0.31202
1125.80 0.31212
1125.90 0.31222
1126.00 0.31231
1126.10 0.31241
1126.20 0.31250
1126.30 0.31261
1126.40 0.31272
1126.50 0.31284
1126.60 0.31295
1126.70 0.31306
1126.80 0.31318
1126.90 0.31329
1127.00 0.31340
1127.10 0.31351
1127.20 0.31362
1127.30 0.31374
1127.40 0.31385
1127.50 0.31396
1127.60 0.31407
1127.70 0.31418
1127.80 0.31429
1127.90 0.31440
1128.00 0.31451
1128.10 0.31462
1128.20 0.31472
1128.30 0.31483
1128.40 0.31494
1128.50 0.31505
1128.60 0.31516
1128.70 0.31526
1128.80 0.31537
1128.90 0.31548
1129.00 0.31558
1129.10 0.31569
1129.20 0.31579
1129.30 0.31590
1129.40 0.31600
1129.50 0.31611
1129.60 0.31621
1129.70 0.31632
1129.80 0.31642
1129.90 0.31652
1130.00 0.31663
1130.10 0.31673
1130.20 0.31683
1130.30 0.31694
1130.40 0.31704
1130.50 0.31714
1130.60 0.31724
1130.70 0.31734
1130.80 0.31744
1130.90 0.31754
1131.00 0.31766
1131.10 0.31777
1131.20 0.31788
1131.30 0.31799
1131.40 0.31811
1131.50 0.31822
1131.60 0.31834
1131.70 0.31845
1131.80 0.31856
1131.90 0.31868
1132.00 0.31879
1132.10 0.31891
1132.20 0.31902
1132.30 0.31914
1132.40 0.31925
1132.50 0.31937
1132.60 0.31949
1132.70 0.31960
1132.80 0.31972
1132.90 0.31984
1133.00 0.31995
1133.10 0.32007
1133.20 0.32019
1133.30 0.32030
1133.40 0.32042
1133.50 0.32054
1133.60 0.32066
1133.70 0.32078
1133.80 0.32090
1133.90 0.32101
1134.00 0.32113
1134.10 0.32125
1134.20 0.32137
1134.30 0.32149
1134.40 0.32161
1134.50 0.32173
1134.60 0.32185
1134.70 0.32197
1134.80 0.32209
1134.90 0.32221
1135.00 0.32234
1135.10 0.32246
1135.20 0.32258
1135.30 0.32270
1135.40 0.32282
1135.50 0.32294
1135.60 0.32306
1135.70 0.32318
1135.80 0.32329
1135.90 0.32340
1136.00 0.32352
1136.10 0.32363
1136.20 0.32374
1136.30 0.32385
1136.40 0.32397
1136.50 0.32408
1136.60 0.32419
1136.70 0.32430
1136.80 0.32441
1136.90 0.32453
1137.00 0.32464
1137.10 0.32475
1137.20 0.32486
1137.30 0.32497
1137.40 0.32508
1137.50 0.32519
1137.60 0.32530
1137.70 0.32541
1137.80 0.32552
1137.90 0.32563
1138.00 0.32574
1138.10 0.32585
1138.20 0.32596
1138.30 0.32607
1138.40 0.32618
1138.50 0.32629
1138.60 0.32640
1138.70 0.32651
1138.80 0.32662
1138.90 0.32673
1139.00 0.32683
1139.10 0.32694
1139.20 0.32705
1139.30 0.32716
1139.40 0.32727
1139.50 0.32737
1139.60 0.32748
1139.70 0.32759
1139.80 0.32770
1139.90 0.32780
1140.00 0.32791
1140.10 0.32802
1140.20 0.32812
1140.30 0.32822
1140.40 0.32831
1140.50 0.32841
1140.60 0.32851
1140.70 0.32860
1140.80 0.32869
1140.90 0.32879
1141.00 0.32888
1141.10 0.32897
1141.20 0.32906
1141.30 0.32915
1141.40 0.32924
1141.50 0.32933
1141.60 0.32942
1141.70 0.32951
1141.80 0.32960
1141.90 0.32969
1142.00 0.32977
1142.10 0.32986
1142.20 0.32995
1142.30 0.33003
1142.40 0.33012
1142.50 0.33020
1142.60 0.33028
1142.70 0.33037
1142.80 0.33045
1142.90 0.33053
1143.00 0.33061
1143.10 0.33069
1143.20 0.33077
1143.30 0.33085
1143.40 0.33093
1143.50 0.33101
1143.60 0.33109
1143.70 0.33117
1143.80 0.33124
1143.90 0.33132
1144.00 0.33140
1144.10 0.33147
1144.20 0.33155
1144.30 0.33162
1144.40 0.33169
1144.50 0.33177
1144.60 0.33184
1144.70 0.33191
1144.80 0.33198
1144.90 0.33205
1145.00 0.33211
1145.10 0.33217
1145.20 0.33223
1145.30 0.33228
1145.40 0.33234
1145.50 0.33240
1145.60 0.33245
1145.70 0.33251
1145.80 0.33256
1145.90 0.33261
1146.00 0.33266
1146.10 0.33271
1146.20 0.33276
1146.30 0.33281
1146.40 0.33286
1146.50 0.33290
1146.60 0.33295
1146.70 0.33299
1146.80 0.33304
1146.90 0.33308
1147.00 0.33312
1147.10 0.33316
1147.20 0.33320
1147.30 0.33324
1147.40 0.33328
1147.50 0.33332
1147.60 0.33335
1147.70 0.33339
1147.80 0.33342
1147.90 0.33345
1148.00 0.33349
1148.10 0.33352
1148.20 0.33355
1148.30 0.33358
1148.40 0.33361
1148.50 0.33363
1148.60 0.33366
1148.70 0.33369
1148.80 0.33371
1148.90 0.33373
1149.00 0.33376
1149.10 0.33378
1149.20 0.33380
1149.30 0.33382
1149.40 0.33384
1149.50 0.33386
1149.60 0.33389
1149.70 0.33391
1149.80 0.33394
1149.90 0.33397
1150.00 0.33400
1150.10 0.33402
1150.20 0.33405
1150.30 0.33408
1150.40 0.33410
1150.50 0.33413
1150.60 0.33415
1150.70 0.33417
1150.80 0.33420
1150.90 0.33422
1151.00 0.33424
1151.10 0.33427
1151.20 0.33429
1151.30 0.33431
1151.40 0.33433
1151.50 0.33435
1151.60 0.33437
1151.70 0.33439
1151.80 0.33441
1151.90 0.33443
1152.00 0.33445
1152.10 0.33446
1152.20 0.33448
1152.30 0.33450
1152.40 0.33451
1152.50 0.33453
1152.60 0.33455
1152.70 0.33456
1152.80 0.33458
1152.90 0.33459
1153.00 0.33460
1153.10 0.33462
1153.20 0.33463
1153.30 0.33464
1153.40 0.33465
1153.50 0.33467
1153.60 0.33468
1153.70 0.33469
1153.80 0.33470
1153.90 0.33471
1154.00 0.33472
1154.10 0.33473
1154.20 0.33475
1154.30 0.33478
1154.40 0.33481
1154.50 0.33484
1154.60 0.33487
1154.70 0.33490
1154.80 0.33494
1154.90 0.33497
1155.00 0.33500
1155.10 0.33504
1155.20 0.33507
1155.30 0.33511
1155.40 0.33514
1155.50 0.33518
1155.60 0.33521
1155.70 0.33525
1155.80 0.33529
1155.90 0.33533
1156.00 0.33537
1156.10 0.33540
1156.20 0.33544
1156.30 0.33548
1156.40 0.33552
1156.50 0.33557
1156.60 0.33561
1156.70 0.33565
1156.80 0.33569
1156.90 0.33573
1157.00 0.33578
1157.10 0.33582
1157.20 0.33587
1157.30 0.33591
1157.40 0.33596
1157.50 0.33600
1157.60 0.33605
1157.70 0.33609
1157.80 0.33614
1157.90 0.33619
1158.00 0.33624
1158.10 0.33628
1158.20 0.33633
1158.30 0.33638
1158.40 0.33643
1158.50 0.33648
1158.60 0.33653
1158.70 0.33659
1158.80 0.33664
1158.90 0.33670
1159.00 0.33677
1159.10 0.33684
1159.20 0.33690
1159.30 0.33697
1159.40 0.33704
1159.50 0.33711
1159.60 0.33719
1159.70 0.33726
1159.80 0.33733
1159.90 0.33741
1160.00 0.33748
1160.10 0.33756
1160.20 0.33764
1160.30 0.33772
1160.40 0.33780
1160.50 0.33788
1160.60 0.33796
1160.70 0.33804
1160.80 0.33813
1160.90 0.33821
1161.00 0.33830
1161.10 0.33839
1161.20 0.33847
1161.30 0.33856
1161.40 0.33865
1161.50 0.33874
1161.60 0.33884
1161.70 0.33893
1161.80 0.33902
1161.90 0.33912
1162.00 0.33921
1162.10 0.33931
1162.20 0.33941
1162.30 0.33951
1162.40 0.33961
1162.50 0.33971
1162.60 0.33981
1162.70 0.33991
1162.80 0.34002
1162.90 0.34012
1163.00 0.34023
1163.10 0.34034
1163.20 0.34044
1163.30 0.34055
1163.40 0.34066
1163.50 0.34077
1163.60 0.34088
1163.70 0.34099
1163.80 0.34110
1163.90 0.34121
1164.00 0.34133
1164.10 0.34144
1164.20 0.34155
1164.30 0.34167
1164.40 0.34179
1164.50 0.34190
1164.60 0.34202
1164.70 0.34214
1164.80 0.34226
1164.90 0.34238
1165.00 0.34250
1165.10 0.34262
1165.20 0.34275
1165.30 0.34287
1165.40 0.34299
1165.50 0.34312
1165.60 0.34325
1165.70 0.34337
1165.80 0.34350
1165.90 0.34363
1166.00 0.34376
1166.10 0.34389
1166.20 0.34402
1166.30 0.34416
1166.40 0.34429
1166.50 0.34442
1166.60 0.34456
1166.70 0.34470
1166.80 0.34483
1166.90 0.34497
1167.00 0.34511
1167.10 0.34525
1167.20 0.34539
1167.30 0.34553
1167.40 0.34567
1167.50 0.34582
1167.60 0.34596
1167.70 0.34610
1167.80 0.34625
1167.90 0.34640
1168.00 0.34654
1168.10 0.34669
1168.20 0.34683
1168.30 0.34698
1168.40 0.34712
1168.50 0.34726
1168.60 0.34740
1168.70 0.34755
1168.80 0.34769
1168.90 0.34784
1169.00 0.34798
1169.10 0.34813
1169.20 0.34828
1169.30 0.34842
1169.40 0.34857
1169.50 0.34872
1169.60 0.34887
1169.70 0.34902
1169.80 0.34917
1169.90 0.34932
1170.00 0.34947
1170.10 0.34962
1170.20 0.34977
1170.30 0.34993
1170.40 0.35008
1170.50 0.35023
1170.60 0.35039
1170.70 0.35054
1170.80 0.35070
1170.90 0.35085
1171.00 0.35101
1171.10 0.35117
1171.20 0.35132
1171.30 0.35148
1171.40 0.35164
1171.50 0.35180
1171.60 0.35196
1171.70 0.35212
1171.80 0.35228
1171.90 0.35244
1172.00 0.35260
1172.10 0.35276
1172.20 0.35293
1172.30 0.35309
1172.40 0.35325
1172.50 0.35342
1172.60 0.35358
1172.70 0.35375
1172.80 0.35391
1172.90 0.35406
1173.00 0.35421
1173.10 0.35437
1173.20 0.35452
1173.30 0.35467
1173.40 0.35482
1173.50 0.35498
1173.60 0.35513
1173.70 0.35528
1173.80 0.35543
1173.90 0.35558
1174.00 0.35574
1174.10 0.35589
1174.20 0.35604
1174.30 0.35619
1174.40 0.35634
1174.50 0.35650
1174.60 0.35665
1174.70 0.35680
1174.80 0.35695
1174.90 0.35710
1175.00 0.35725
1175.10 0.35741
1175.20 0.35756
1175.30 0.35771
1175.40 0.35786
1175.50 0.35801
1175.60 0.35816
1175.70 0.35831
1175.80 0.35847
1175.90 0.35862
1176.00 0.35877
1176.10 0.35892
1176.20 0.35907
1176.30 0.35922
1176.40 0.35937
1176.50 0.35952
1176.60 0.35967
1176.70 0.35983
1176.80 0.35998
1176.90 0.36013
1177.00 0.36028
1177.10 0.36043
1177.20 0.36058
1177.30 0.36073
1177.40 0.36088
1177.50 0.36103
1177.60 0.36117
1177.70 0.36132
1177.80 0.36146
1177.90 0.36160
1178.00 0.36175
1178.10 0.36189
1178.20 0.36203
1178.30 0.36218
1178.40 0.36232
1178.50 0.36246
1178.60 0.36260
1178.70 0.36274
1178.80 0.36289
1178.90 0.36303
1179.00 0.36317
1179.10 0.36331
1179.20 0.36345
1179.30 0.36359
1179.40 0.36373
1179.50 0.36387
1179.60 0.36401
1179.70 0.36415
1179.80 0.36428
1179.90 0.36442
1180.00 0.36456
1180.10 0.36470
1180.20 0.36484
1180.30 0.36497
1180.40 0.36511
1180.50 0.36525
1180.60 0.36538
1180.70 0.36552
1180.80 0.36566
1180.90 0.36579
1181.00 0.36593
1181.10 0.36606
1181.20 0.36620
1181.30 0.36633
1181.40 0.36647
1181.50 0.36660
1181.60 0.36673
1181.70 0.36687
1181.80 0.36700
1181.90 0.36713
1182.00 0.36726
1182.10 0.36739
1182.20 0.36752
1182.30 0.36764
1182.40 0.36776
1182.50 0.36788
1182.60 0.36801
1182.70 0.36813
1182.80 0.36825
1182.90 0.36837
1183.00 0.36849
1183.10 0.36860
1183.20 0.36872
1183.30 0.36884
1183.40 0.36896
1183.50 0.36907
1183.60 0.36919
1183.70 0.36930
1183.80 0.36942
1183.90 0.36953
1184.00 0.36964
1184.10 0.36975
1184.20 0.36987
1184.30 0.36998
1184.40 0.37009
1184.50 0.37020
1184.60 0.37031
1184.70 0.37042
1184.80 0.37052
1184.90 0.37063
1185.00 0.37074
1185.10 0.37084
1185.20 0.37095
1185.30 0.37106
1185.40 0.37116
1185.50 0.37126
1185.60 0.37137
1185.70 0.37147
1185.80 0.37157
1185.90 0.37167
1186.00 0.37177
1186.10 0.37187
1186.20 0.37197
1186.30 0.37207
1186.40 0.37217
1186.50 0.37227
1186.60 0.37237
1186.70 0.37246
1186.80 0.37256
1186.90 0.37266
1187.00 0.37276
1187.10 0.37286
1187.20 0.37296
1187.30 0.37306
1187.40 0.37315
1187.50 0.37325
1187.60 0.37335
1187.70 0.37345
1187.80 0.37354
1187.90 0.37364
1188.00 0.37373
1188.10 0.37383
1188.20 0.37392
1188.30 0.37401
1188.40 0.37411
1188.50 0.37420
1188.60 0.37429
1188.70 0.37439
1188.80 0.37448
1188.90 0.37457
1189.00 0.37466
1189.10 0.37475
1189.20 0.37484
1189.30 0.37493
1189.40 0.37502
1189.50 0.37511
1189.60 0.37520
1189.70 0.37528
1189.80 0.37537
1189.90 0.37546
1190.00 0.37555
1190.10 0.37563
1190.20 0.37572
1190.30 0.37580
1190.40 0.37589
1190.50 0.37597
1190.60 0.37606
1190.70 0.37614
1190.80 0.37622
1190.90 0.37631
1191.00 0.37639
1191.10 0.37647
1191.20 0.37655
1191.30 0.37664
1191.40 0.37672
1191.50 0.37681
1191.60 0.37689
1191.70 0.37698
1191.80 0.37707
1191.90 0.37716
1192.00 0.37724
1192.10 0.37733
1192.20 0.37742
1192.30 0.37750
1192.40 0.37759
1192.50 0.37768
1192.60 0.37776
1192.70 0.37785
1192.80 0.37793
1192.90 0.37802
1193.00 0.37811
1193.10 0.37819
1193.20 0.37828
1193.30 0.37836
1193.40 0.37845
1193.50 0.37853
1193.60 0.37862
1193.70 0.37870
1193.80 0.37879
1193.90 0.37887
1194.00 0.37895
1194.10 0.37904
1194.20 0.37912
1194.30 0.37921
1194.40 0.37929
1194.50 0.37938
1194.60 0.37946
1194.70 0.37954
1194.80 0.37963
1194.90 0.37971
1195.00 0.37979
1195.10 0.37988
1195.20 0.37996
1195.30 0.38004
1195.40 0.38012
1195.50 0.38021
1195.60 0.38029
1195.70 0.38037
1195.80 0.38045
1195.90 0.38053
1196.00 0.38062
1196.10 0.38071
1196.20 0.38079
1196.30 0.38088
1196.40 0.38097
1196.50 0.38106
1196.60 0.38115
1196.70 0.38124
1196.80 0.38133
1196.90 0.38142
1197.00 0.38151
1197.10 0.38160
1197.20 0.38169
1197.30 0.38178
1197.40 0.38187
1197.50 0.38196
1197.60 0.38205
1197.70 0.38214
1197.80 0.38223
1197.90 0.38232
1198.00 0.38242
1198.10 0.38251
1198.20 0.38260
1198.30 0.38269
1198.40 0.38278
1198.50 0.38287
1198.60 0.38297
1198.70 0.38306
1198.80 0.38315
1198.90 0.38324
1199.00 0.38334
1199.10 0.38343
1199.20 0.38352
1199.30 0.38362
1199.40 0.38371
1199.50 0.38380
1199.60 0.38390
1199.70 0.38399
1199.80 0.38409
1199.90 0.38418
1200.00 0.38428
1200.10 0.38437
1200.20 0.38446
1200.30 0.38456
1200.40 0.38465
1200.50 0.38475
1200.60 0.38485
1200.70 0.38494
1200.80 0.38503
1200.90 0.38512
1201.00 0.38521
1201.10 0.38530
1201.20 0.38539
1201.30 0.38548
1201.40 0.38557
1201.50 0.38566
1201.60 0.38575
1201.70 0.38584
1201.80 0.38593
1201.90 0.38602
1202.00 0.38611
1202.10 0.38620
1202.20 0.38629
1202.30 0.38638
1202.40 0.38647
1202.50 0.38656
1202.60 0.38665
1202.70 0.38674
1202.80 0.38683
1202.90 0.38692
1203.00 0.38701
1203.10 0.38710
1203.20 0.38718
1203.30 0.38727
1203.40 0.38736
1203.50 0.38745
1203.60 0.38754
1203.70 0.38763
1203.80 0.38772
1203.90 0.38781
1204.00 0.38789
1204.10 0.38798
1204.20 0.38807
1204.30 0.38816
1204.40 0.38825
1204.50 0.38834
1204.60 0.38843
1204.70 0.38851
1204.80 0.38860
1204.90 0.38869
1205.00 0.38878
1205.10 0.38887
1205.20 0.38895
1205.30 0.38904
1205.40 0.38912
1205.50 0.38920
1205.60 0.38928
1205.70 0.38936
1205.80 0.38944
1205.90 0.38952
1206.00 0.38959
1206.10 0.38967
1206.20 0.38975
1206.30 0.38982
1206.40 0.38990
1206.50 0.38998
1206.60 0.39005
1206.70 0.39013
1206.80 0.39020
1206.90 0.39028
1207.00 0.39035
1207.10 0.39042
1207.20 0.39050
1207.30 0.39057
1207.40 0.39064
1207.50 0.39071
1207.60 0.39078
1207.70 0.39086
1207.80 0.39093
1207.90 0.39100
1208.00 0.39107
1208.10 0.39114
1208.20 0.39121
1208.30 0.39127
1208.40 0.39134
1208.50 0.39141
1208.60 0.39148
1208.70 0.39155
1208.80 0.39161
1208.90 0.39168
1209.00 0.39175
1209.10 0.39181
1209.20 0.39188
1209.30 0.39194
1209.40 0.39201
1209.50 0.39207
1209.60 0.39213
1209.70 0.39220
1209.80 0.39226
1209.90 0.39232
1210.00 0.39239
1210.10 0.39246
1210.20 0.39252
1210.30 0.39259
1210.40 0.39265
1210.50 0.39272
1210.60 0.39279
1210.70 0.39285
1210.80 0.39292
1210.90 0.39298
1211.00 0.39305
1211.10 0.39311
1211.20 0.39318
1211.30 0.39324
1211.40 0.39331
1211.50 0.39337
1211.60 0.39344
1211.70 0.39350
1211.80 0.39356
1211.90 0.39363
1212.00 0.39369
1212.10 0.39375
1212.20 0.39382
1212.30 0.39388
1212.40 0.39394
1212.50 0.39400
1212.60 0.39407
1212.70 0.39413
1212.80 0.39419
1212.90 0.39425
1213.00 0.39431
1213.10 0.39437
1213.20 0.39444
1213.30 0.39450
1213.40 0.39456
1213.50 0.39462
1213.60 0.39468
1213.70 0.39474
1213.80 0.39480
1213.90 0.39486
1214.00 0.39492
1214.10 0.39498
1214.20 0.39504
1214.30 0.39510
1214.40 0.39516
1214.50 0.39521
1214.60 0.39527
1214.70 0.39534
1214.80 0.39541
1214.90 0.39548
1215.00 0.39555
1215.10 0.39562
1215.20 0.39569
1215.30 0.39576
1215.40 0.39583
1215.50 0.39590
1215.60 0.39597
1215.70 0.39604
1215.80 0.39611
1215.90 0.39618
1216.00 0.39626
1216.10 0.39633
1216.20 0.39640
1216.30 0.39647
1216.40 0.39654
1216.50 0.39662
1216.60 0.39669
1216.70 0.39676
1216.80 0.39684
1216.90 0.39691
1217.00 0.39699
1217.10 0.39706
1217.20 0.39714
1217.30 0.39721
1217.40 0.39729
1217.50 0.39736
1217.60 0.39744
1217.70 0.39751
1217.80 0.39759
1217.90 0.39766
1218.00 0.39774
1218.10 0.39782
1218.20 0.39790
1218.30 0.39797
1218.40 0.39805
1218.50 0.39813
1218.60 0.39821
1218.70 0.39828
1218.80 0.39836
1218.90 0.39844
1219.00 0.39852
1219.10 0.39860
1219.20 0.39868
1219.30 0.39876
1219.40 0.39883
1219.50 0.39891
1219.60 0.39899
1219.70 0.39907
1219.80 0.39914
1219.90 0.39922
1220.00 0.39930
1220.10 0.39938
1220.20 0.39945
1220.30 0.39953
1220.40 0.39961
1220.50 0.39969
1220.60 0.39976
1220.70 0.39984
1220.80 0.39992
1220.90 0.40000
1221.00 0.40008
1221.10 0.40016
1221.20 0.40024
1221.30 0.40031
1221.40 0.40039
1221.50 0.40047
1221.60 0.40055
1221.70 0.40063
1221.80 0.40071
1221.90 0.40079
1222.00 0.40087
1222.10 0.40095
1222.20 0.40103
1222.30 0.40111
1222.40 0.40119
1222.50 0.40127
1222.60 0.40135
1222.70 0.40143
1222.80 0.40151
1222.90 0.40159
1223.00 0.40167
1223.10 0.40175
1223.20 0.40183
1223.30 0.40192
1223.40 0.40200
1223.50 0.40208
1223.60 0.40216
1223.70 0.40224
1223.80 0.40232
1223.90 0.40240
1224.00 0.40248
1224.10 0.40255
1224.20 0.40262
1224.30 0.40269
1224.40 0.40277
1224.50 0.40284
1224.60 0.40291
1224.70 0.40298
1224.80 0.40305
1224.90 0.40312
1225.00 0.40319
1225.10 0.40326
1225.20 0.40333
1225.30 0.40340
1225.40 0.40347
1225.50 0.40354
1225.60 0.40360
1225.70 0.40367
1225.80 0.40374
1225.90 0.40381
1226.00 0.40388
1226.10 0.40394
1226.20 0.40401
1226.30 0.40408
1226.40 0.40414
1226.50 0.40421
1226.60 0.40427
1226.70 0.40434
1226.80 0.40440
1226.90 0.40447
1227.00 0.40453
1227.10 0.40460
1227.20 0.40466
1227.30 0.40473
1227.40 0.40479
1227.50 0.40485
1227.60 0.40492
1227.70 0.40498
1227.80 0.40504
1227.90 0.40510
1228.00 0.40517
1228.10 0.40523
1228.20 0.40529
1228.30 0.40535
1228.40 0.40541
1228.50 0.40547
1228.60 0.40553
1228.70 0.40559
1228.80 0.40565
1228.90 0.40571
1229.00 0.40577
1229.10 0.40583
1229.20 0.40589
1229.30 0.40595
1229.40 0.40601
1229.50 0.40607
1229.60 0.40613
1229.70 0.40619
1229.80 0.40625
1229.90 0.40631
1230.00 0.40636
1230.10 0.40642
1230.20 0.40648
1230.30 0.40654
1230.40 0.40659
1230.50 0.40665
1230.60 0.40671
1230.70 0.40676
1230.80 0.40682
1230.90 0.40688
1231.00 0.40693
1231.10 0.40699
1231.20 0.40704
1231.30 0.40710
1231.40 0.40715
1231.50 0.40721
1231.60 0.40726
1231.70 0.40732
1231.80 0.40737
1231.90 0.40742
1232.00 0.40748
1232.10 0.40753
1232.20 0.40758
1232.30 0.40764
1232.40 0.40769
1232.50 0.40774
1232.60 0.40779
1232.70 0.40785
1232.80 0.40790
1232.90 0.40795
1233.00 0.40800
1233.10 0.40805
1233.20 0.40810
1233.30 0.40816
1233.40 0.40822
1233.50 0.40828
1233.60 0.40834
1233.70 0.40840
1233.80 0.40846
1233.90 0.40852
1234.00 0.40858
1234.10 0.40864
1234.20 0.40870
1234.30 0.40876
1234.40 0.40882
1234.50 0.40888
1234.60 0.40894
1234.70 0.40900
1234.80 0.40906
1234.90 0.40912
1235.00 0.40918
1235.10 0.40924
1235.20 0.40931
1235.30 0.40937
1235.40 0.40943
1235.50 0.40949
1235.60 0.40955
1235.70 0.40962
1235.80 0.40968
1235.90 0.40974
1236.00 0.40980
1236.10 0.40987
1236.20 0.40993
1236.30 0.40999
1236.40 0.41005
1236.50 0.41012
1236.60 0.41018
1236.70 0.41024
1236.80 0.41031
1236.90 0.41037
1237.00 0.41044
1237.10 0.41050
1237.20 0.41056
1237.30 0.41063
1237.40 0.41069
1237.50 0.41076
1237.60 0.41082
1237.70 0.41089
1237.80 0.41095
1237.90 0.41101
1238.00 0.41107
1238.10 0.41113
1238.20 0.41118
1238.30 0.41124
1238.40 0.41130
1238.50 0.41136
1238.60 0.41141
1238.70 0.41147
1238.80 0.41153
1238.90 0.41158
1239.00 0.41164
1239.10 0.41169
1239.20 0.41175
1239.30 0.41180
1239.40 0.41186
1239.50 0.41191
1239.60 0.41197
1239.70 0.41202
1239.80 0.41208
1239.90 0.41213
1240.00 0.41219
1240.10 0.41224
1240.20 0.41230
1240.30 0.41235
1240.40 0.41240
1240.50 0.41246
1240.60 0.41251
1240.70 0.41256
1240.80 0.41262
1240.90 0.41267
1241.00 0.41272
1241.10 0.41277
1241.20 0.41283
1241.30 0.41288
1241.40 0.41293
1241.50 0.41298
1241.60 0.41303
1241.70 0.41308
1241.80 0.41314
1241.90 0.41319
1242.00 0.41324
1242.10 0.41329
1242.20 0.41334
1242.30 0.41339
1242.40 0.41344
1242.50 0.41349
1242.60 0.41354
1242.70 0.41359
1242.80 0.41363
1242.90 0.41368
1243.00 0.41373
1243.10 0.41378
1243.20 0.41382
1243.30 0.41387
1243.40 0.41392
1243.50 0.41396
1243.60 0.41401
1243.70 0.41405
1243.80 0.41410
1243.90 0.41415
1244.00 0.41419
1244.10 0.41424
1244.20 0.41428
1244.30 0.41433
1244.40 0.41437
1244.50 0.41441
1244.60 0.41446
1244.70 0.41450
1244.80 0.41455
1244.90 0.41459
1245.00 0.41463
1245.10 0.41467
1245.20 0.41472
1245.30 0.41476
1245.40 0.41480
1245.50 0.41484
1245.60 0.41488
1245.70 0.41493
1245.80 0.41497
1245.90 0.41501
1246.00 0.41505
1246.10 0.41509
1246.20 0.41513
1246.30 0.41517
1246.40 0.41521
1246.50 0.41525
1246.60 0.41529
1246.70 0.41533
1246.80 0.41537
1246.90 0.41541
1247.00 0.41544
1247.10 0.41548
1247.20 0.41552
1247.30 0.41556
1247.40 0.41559
1247.50 0.41563
1247.60 0.41566
1247.70 0.41570
1247.80 0.41573
1247.90 0.41577
1248.00 0.41580
1248.10 0.41584
1248.20 0.41587
1248.30 0.41591
1248.40 0.41594
1248.50 0.41597
1248.60 0.41600
1248.70 0.41604
1248.80 0.41607
1248.90 0.41610
1249.00 0.41613
1249.10 0.41616
1249.20 0.41620
1249.30 0.41623
1249.40 0.41626
1249.50 0.41629
1249.60 0.41632
1249.70 0.41635
1249.80 0.41638
1249.90 0.41641
1250.00 0.41643
1250.10 0.41646
1250.20 0.41649
1250.30 0.41652
1250.40 0.41655
1250.50 0.41657
1250.60 0.41660
1250.70 0.41663
1250.80 0.41665
1250.90 0.41668
1251.00 0.41671
1251.10 0.41673
1251.20 0.41676
1251.30 0.41678
1251.40 0.41681
1251.50 0.41683
1251.60 0.41686
1251.70 0.41688
1251.80 0.41691
1251.90 0.41694
1252.00 0.41697
1252.10 0.41701
1252.20 0.41704
1252.30 0.41708
1252.40 0.41711
1252.50 0.41715
1252.60 0.41718
1252.70 0.41722
1252.80 0.41725
1252.90 0.41729
1253.00 0.41732
1253.10 0.41736
1253.20 0.41739
1253.30 0.41743
1253.40 0.41747
1253.50 0.41750
1253.60 0.41754
1253.70 0.41758
1253.80 0.41761
1253.90 0.41765
1254.00 0.41769
1254.10 0.41772
1254.20 0.41776
1254.30 0.41780
1254.40 0.41784
1254.50 0.41787
1254.60 0.41791
1254.70 0.41795
1254.80 0.41799
1254.90 0.41803
1255.00 0.41807
1255.10 0.41810
1255.20 0.41814
1255.30 0.41818
1255.40 0.41822
1255.50 0.41826
1255.60 0.41830
1255.70 0.41834
1255.80 0.41838
1255.90 0.41842
1256.00 0.41846
1256.10 0.41850
1256.20 0.41854
1256.30 0.41858
1256.40 0.41862
1256.50 0.41865
1256.60 0.41868
1256.70 0.41870
1256.80 0.41872
1256.90 0.41874
1257.00 0.41876
1257.10 0.41878
1257.20 0.41880
1257.30 0.41881
1257.40 0.41883
1257.50 0.41885
1257.60 0.41887
1257.70 0.41888
1257.80 0.41890
1257.90 0.41891
1258.00 0.41892
1258.10 0.41894
1258.20 0.41895
1258.30 0.41896
1258.40 0.41897
1258.50 0.41898
1258.60 0.41899
1258.70 0.41900
1258.80 0.41901
1258.90 0.41902
1259.00 0.41903
1259.10 0.41904
1259.20 0.41904
1259.30 0.41905
1259.40 0.41905
1259.50 0.41906
1259.60 0.41906
1259.70 0.41906
1259.80 0.41907
1259.90 0.41907
1260.00 0.41907
1260.10 0.41907
1260.20 0.41907
1260.30 0.41907
1260.40 0.41907
1260.50 0.41907
1260.60 0.41907
1260.70 0.41906
1260.80 0.41906
1260.90 0.41906
1261.00 0.41905
1261.10 0.41905
1261.20 0.41906
1261.30 0.41907
1261.40 0.41908
1261.50 0.41909
1261.60 0.41910
1261.70 0.41911
1261.80 0.41912
1261.90 0.41913
1262.00 0.41914
1262.10 0.41915
1262.20 0.41916
1262.30 0.41917
1262.40 0.41918
1262.50 0.41919
1262.60 0.41920
1262.70 0.41922
1262.80 0.41923
1262.90 0.41924
1263.00 0.41925
1263.10 0.41926
1263.20 0.41927
1263.30 0.41928
1263.40 0.41929
1263.50 0.41930
1263.60 0.41932
1263.70 0.41933
1263.80 0.41934
1263.90 0.41935
1264.00 0.41936
1264.10 0.41937
1264.20 0.41939
1264.30 0.41940
1264.40 0.41941
1264.50 0.41942
1264.60 0.41943
1264.70 0.41944
1264.80 0.41946
1264.90 0.41947
1265.00 0.41948
1265.10 0.41949
1265.20 0.41951
1265.30 0.41952
1265.40 0.41953
1265.50 0.41954
1265.60 0.41955
1265.70 0.41957
1265.80 0.41959
1265.90 0.41962
1266.00 0.41964
1266.10 0.41967
1266.20 0.41970
1266.30 0.41973
1266.40 0.41976
1266.50 0.41980
1266.60 0.41983
1266.70 0.41986
1266.80 0.41990
1266.90 0.41993
1267.00 0.41997
1267.10 0.42000
1267.20 0.42004
1267.30 0.42008
1267.40 0.42012
1267.50 0.42015
1267.60 0.42019
1267.70 0.42023
1267.80 0.42027
1267.90 0.42032
1268.00 0.42036
1268.10 0.42040
1268.20 0.42044
1268.30 0.42049
1268.40 0.42053
1268.50 0.42058
1268.60 0.42063
1268.70 0.42067
1268.80 0.42072
1268.90 0.42077
1269.00 0.42082
1269.10 0.42087
1269.20 0.42092
1269.30 0.42097
1269.40 0.42102
1269.50 0.42107
1269.60 0.42112
1269.70 0.42118
1269.80 0.42123
1269.90 0.42129
1270.00 0.42134
1270.10 0.42140
1270.20 0.42146
1270.30 0.42151
1270.40 0.42157
1270.50 0.42165
1270.60 0.42173
1270.70 0.42181
1270.80 0.42189
1270.90 0.42198
1271.00 0.42206
1271.10 0.42215
1271.20 0.42224
1271.30 0.42232
1271.40 0.42242
1271.50 0.42251
1271.60 0.42260
1271.70 0.42270
1271.80 0.42279
1271.90 0.42289
1272.00 0.42299
1272.10 0.42309
1272.20 0.42319
1272.30 0.42330
1272.40 0.42340
1272.50 0.42351
1272.60 0.42362
1272.70 0.42373
1272.80 0.42384
1272.90 0.42395
1273.00 0.42406
1273.10 0.42418
1273.20 0.42430
1273.30 0.42442
1273.40 0.42454
1273.50 0.42466
1273.60 0.42478
1273.70 0.42490
1273.80 0.42503
1273.90 0.42516
1274.00 0.42528
1274.10 0.42541
1274.20 0.42554
1274.30 0.42568
1274.40 0.42581
1274.50 0.42595
1274.60 0.42608
1274.70 0.42622
1274.80 0.42636
1274.90 0.42650
1275.00 0.42665
1275.10 0.42677
1275.20 0.42688
1275.30 0.42698
1275.40 0.42709
1275.50 0.42719
1275.60 0.42730
1275.70 0.42740
1275.80 0.42750
1275.90 0.42761
1276.00 0.42771
1276.10 0.42782
1276.20 0.42792
1276.30 0.42802
1276.40 0.42812
1276.50 0.42823
1276.60 0.42833
1276.70 0.42843
1276.80 0.42853
1276.90 0.42864
1277.00 0.42874
1277.10 0.42884
1277.20 0.42894
1277.30 0.42904
1277.40 0.42914
1277.50 0.42924
1277.60 0.42934
1277.70 0.42944
1277.80 0.42954
1277.90 0.42964
1278.00 0.42974
1278.10 0.42984
1278.20 0.42994
1278.30 0.43004
1278.40 0.43014
1278.50 0.43023
1278.60 0.43033
1278.70 0.43043
1278.80 0.43053
1278.90 0.43063
1279.00 0.43072
1279.10 0.43082
1279.20 0.43092
1279.30 0.43101
1279.40 0.43111
1279.50 0.43121
1279.60 0.43130
1279.70 0.43140
1279.80 0.43147
1279.90 0.43154
1280.00 0.43162
1280.10 0.43169
1280.20 0.43176
1280.30 0.43183
1280.40 0.43190
1280.50 0.43196
1280.60 0.43203
1280.70 0.43209
1280.80 0.43216
1280.90 0.43222
1281.00 0.43228
1281.10 0.43234
1281.20 0.43240
1281.30 0.43246
1281.40 0.43252
1281.50 0.43257
1281.60 0.43263
1281.70 0.43268
1281.80 0.43273
1281.90 0.43278
1282.00 0.43283
1282.10 0.43288
1282.20 0.43293
1282.30 0.43298
1282.40 0.43303
1282.50 0.43307
1282.60 0.43311
1282.70 0.43316
1282.80 0.43320
1282.90 0.43324
1283.00 0.43328
1283.10 0.43332
1283.20 0.43336
1283.30 0.43339
1283.40 0.43343
1283.50 0.43346
1283.60 0.43349
1283.70 0.43353
1283.80 0.43356
1283.90 0.43359
1284.00 0.43362
1284.10 0.43364
1284.20 0.43367
1284.30 0.43370
1284.40 0.43372
1284.50 0.43375
1284.60 0.43378
1284.70 0.43381
1284.80 0.43384
1284.90 0.43386
1285.00 0.43389
1285.10 0.43392
1285.20 0.43394
1285.30 0.43396
1285.40 0.43398
1285.50 0.43401
1285.60 0.43403
1285.70 0.43405
1285.80 0.43407
1285.90 0.43408
1286.00 0.43410
1286.10 0.43412
1286.20 0.43413
1286.30 0.43415
1286.40 0.43416
1286.50 0.43418
1286.60 0.43419
1286.70 0.43420
1286.80 0.43421
1286.90 0.43422
1287.00 0.43423
1287.10 0.43424
1287.20 0.43425
1287.30 0.43426
1287.40 0.43426
1287.50 0.43427
1287.60 0.43427
1287.70 0.43428
1287.80 0.43428
1287.90 0.43428
1288.00 0.43428
1288.10 0.43428
1288.20 0.43428
1288.30 0.43428
1288.40 0.43428
1288.50 0.43428
1288.60 0.43427
1288.70 0.43427
1288.80 0.43426
1288.90 0.43426
1289.00 0.43425
1289.10 0.43428
1289.20 0.43431
1289.30 0.43434
1289.40 0.43437
1289.50 0.43440
1289.60 0.43443
1289.70 0.43447
1289.80 0.43450
1289.90 0.43453
1290.00 0.43457
1290.10 0.43460
1290.20 0.43464
1290.30 0.43468
1290.40 0.43472
1290.50 0.43476
1290.60 0.43479
1290.70 0.43484
1290.80 0.43488
1290.90 0.43492
1291.00 0.43496
1291.10 0.43500
1291.20 0.43505
1291.30 0.43509
1291.40 0.43514
1291.50 0.43518
1291.60 0.43523
1291.70 0.43528
1291.80 0.43532
1291.90 0.43537
1292.00 0.43542
1292.10 0.43547
1292.20 0.43552
1292.30 0.43557
1292.40 0.43563
1292.50 0.43568
1292.60 0.43573
1292.70 0.43579
1292.80 0.43584
1292.90 0.43590
1293.00 0.43596
1293.10 0.43601
1293.20 0.43607
1293.30 0.43613
1293.40 0.43619
1293.50 0.43625
1293.60 0.43631
1293.70 0.43638
1293.80 0.43645
1293.90 0.43652
1294.00 0.43660
1294.10 0.43667
1294.20 0.43675
1294.30 0.43683
1294.40 0.43691
1294.50 0.43699
1294.60 0.43707
1294.70 0.43715
1294.80 0.43723
1294.90 0.43732
1295.00 0.43740
1295.10 0.43749
1295.20 0.43758
1295.30 0.43767
1295.40 0.43776
1295.50 0.43785
1295.60 0.43794
1295.70 0.43803
1295.80 0.43813
1295.90 0.43823
1296.00 0.43832
1296.10 0.43842
1296.20 0.43852
1296.30 0.43862
1296.40 0.43872
1296.50 0.43882
1296.60 0.43893
1296.70 0.43903
1296.80 0.43914
1296.90 0.43924
1297.00 0.43935
1297.10 0.43946
1297.20 0.43957
1297.30 0.43968
1297.40 0.43980
1297.50 0.43991
1297.60 0.44002
1297.70 0.44014
1297.80 0.44026
1297.90 0.44038
1298.00 0.44050
1298.10 0.44062
1298.20 0.44074
1298.30 0.44086
1298.40 0.44095
1298.50 0.44105
1298.60 0.44114
1298.70 0.44123
1298.80 0.44132
1298.90 0.44142
1299.00 0.44151
1299.10 0.44160
1299.20 0.44169
1299.30 0.44178
1299.40 0.44187
1299.50 0.44196
1299.60 0.44206
1299.70 0.44215
1299.80 0.44224
1299.90 0.44233
1300.00 0.44242
1300.10 0.44251
1300.20 0.44260
1300.30 0.44269
1300.40 0.44278
1300.50 0.44287
1300.60 0.44296
1300.70 0.44304
1300.80 0.44313
1300.90 0.44322
1301.00 0.44331
1301.10 0.44340
1301.20 0.44349
1301.30 0.44358
1301.40 0.44366
1301.50 0.44375
1301.60 0.44384
1301.70 0.44393
1301.80 0.44401
1301.90 0.44410
1302.00 0.44419
1302.10 0.44427
1302.20 0.44436
1302.30 0.44445
1302.40 0.44453
1302.50 0.44462
1302.60 0.44470
1302.70 0.44479
1302.80 0.44487
1302.90 0.44496
1303.00 0.44504
1303.10 0.44511
1303.20 0.44518
1303.30 0.44525
1303.40 0.44532
1303.50 0.44539
1303.60 0.44546
1303.70 0.44553
1303.80 0.44560
1303.90 0.44566
1304.00 0.44573
1304.10 0.44579
1304.20 0.44586
1304.30 0.44592
1304.40 0.44598
1304.50 0.44605
1304.60 0.44611
1304.70 0.44617
1304.80 0.44623
1304.90 0.44629
1305.00 0.44635
1305.10 0.44640
1305.20 0.44646
1305.30 0.44652
1305.40 0.44657
1305.50 0.44663
1305.60 0.44668
1305.70 0.44674
1305.80 0.44679
1305.90 0.44684
1306.00 0.44689
1306.10 0.44695
1306.20 0.44700
1306.30 0.44705
1306.40 0.44709
1306.50 0.44714
1306.60 0.44719
1306.70 0.44724
1306.80 0.44728
1306.90 0.44733
1307.00 0.44737
1307.10 0.44742
1307.20 0.44746
1307.30 0.44750
1307.40 0.44755
1307.50 0.44759
1307.60 0.44763
1307.70 0.44768
1307.80 0.44773
1307.90 0.44778
1308.00 0.44783
1308.10 0.44788
1308.20 0.44793
1308.30 0.44798
1308.40 0.44803
1308.50 0.44808
1308.60 0.44813
1308.70 0.44818
1308.80 0.44823
1308.90 0.44828
1309.00 0.44833
1309.10 0.44838
1309.20 0.44843
1309.30 0.44848
1309.40 0.44853
1309.50 0.44857
1309.60 0.44862
1309.70 0.44867
1309.80 0.44872
1309.90 0.44876
1310.00 0.44881
1310.10 0.44886
1310.20 0.44890
1310.30 0.44895
1310.40 0.44900
1310.50 0.44904
1310.60 0.44909
1310.70 0.44913
1310.80 0.44918
1310.90 0.44923
1311.00 0.44927
1311.10 0.44931
1311.20 0.44936
1311.30 0.44940
1311.40 0.44945
1311.50 0.44949
1311.60 0.44954
1311.70 0.44958
1311.80 0.44962
1311.90 0.44967
1312.00 0.44971
1312.10 0.44975
1312.20 0.44979
1312.30 0.44984
1312.40 0.44990
1312.50 0.44996
1312.60 0.45001
1312.70 0.45007
1312.80 0.45013
1312.90 0.45019
1313.00 0.45025
1313.10 0.45030
1313.20 0.45036
1313.30 0.45042
1313.40 0.45048
1313.50 0.45054
1313.60 0.45060
1313.70 0.45067
1313.80 0.45073
1313.90 0.45079
1314.00 0.45085
1314.10 0.45091
1314.20 0.45098
1314.30 0.45104
1314.40 0.45110
1314.50 0.45117
1314.60 0.45123
1314.70 0.45130
1314.80 0.45136
1314.90 0.45143
1315.00 0.45149
1315.10 0.45156
1315.20 0.45163
1315.30 0.45170
1315.40 0.45176
1315.50 0.45183
1315.60 0.45190
1315.70 0.45197
1315.80 0.45204
1315.90 0.45211
1316.00 0.45218
1316.10 0.45225
1316.20 0.45232
1316.30 0.45239
1316.40 0.45246
1316.50 0.45253
1316.60 0.45260
1316.70 0.45267
1316.80 0.45275
1316.90 0.45282
1317.00 0.45289
1317.10 0.45297
1317.20 0.45305
1317.30 0.45312
1317.40 0.45320
1317.50 0.45327
1317.60 0.45335
1317.70 0.45343
1317.80 0.45351
1317.90 0.45358
1318.00 0.45366
1318.10 0.45374
1318.20 0.45382
1318.30 0.45390
1318.40 0.45398
1318.50 0.45406
1318.60 0.45414
1318.70 0.45423
1318.80 0.45431
1318.90 0.45439
1319.00 0.45447
1319.10 0.45456
1319.20 0.45464
1319.30 0.45472
1319.40 0.45481
1319.50 0.45489
1319.60 0.45498
1319.70 0.45506
1319.80 0.45515
1319.90 0.45524
1320.00 0.45532
1320.10 0.45541
1320.20 0.45550
1320.30 0.45559
1320.40 0.45568
1320.50 0.45577
1320.60 0.45586
1320.70 0.45595
1320.80 0.45604
1320.90 0.45613
1321.00 0.45622
1321.10 0.45631
1321.20 0.45640
1321.30 0.45649
1321.40 0.45659
1321.50 0.45668
1321.60 0.45676
1321.70 0.45684
1321.80 0.45691
1321.90 0.45698
1322.00 0.45706
1322.10 0.45713
1322.20 0.45720
1322.30 0.45727
1322.40 0.45734
1322.50 0.45741
1322.60 0.45748
1322.70 0.45755
1322.80 0.45762
1322.90 0.45769
1323.00 0.45776
1323.10 0.45783
1323.20 0.45789
1323.30 0.45796
1323.40 0.45803
1323.50 0.45809
1323.60 0.45816
1323.70 0.45822
1323.80 0.45829
1323.90 0.45835
1324.00 0.45842
1324.10 0.45848
1324.20 0.45854
1324.30 0.45861
1324.40 0.45867
1324.50 0.45873
1324.60 0.45879
1324.70 0.45885
1324.80 0.45892
1324.90 0.45898
1325.00 0.45904
1325.10 0.45910
1325.20 0.45915
1325.30 0.45921
1325.40 0.45927
1325.50 0.45933
1325.60 0.45939
1325.70 0.45944
1325.80 0.45950
1325.90 0.45956
1326.00 0.45961
1326.10 0.45967
1326.20 0.45972
1326.30 0.45977
1326.40 0.45981
1326.50 0.45985
1326.60 0.45989
1326.70 0.45993
1326.80 0.45997
1326.90 0.46000
1327.00 0.46004
1327.10 0.46007
1327.20 0.46011
1327.30 0.46014
1327.40 0.46018
1327.50 0.46021
1327.60 0.46024
1327.70 0.46027
1327.80 0.46030
1327.90 0.46033
1328.00 0.46035
1328.10 0.46038
1328.20 0.46041
1328.30 0.46043
1328.40 0.46045
1328.50 0.46048
1328.60 0.46050
1328.70 0.46052
1328.80 0.46054
1328.90 0.46056
1329.00 0.46058
1329.10 0.46060
1329.20 0.46061
1329.30 0.46063
1329.40 0.46064
1329.50 0.46066
1329.60 0.46067
1329.70 0.46068
1329.80 0.46069
1329.90 0.46070
1330.00 0.46071
1330.10 0.46072
1330.20 0.46073
1330.30 0.46073
1330.40 0.46074
1330.50 0.46075
1330.60 0.46075
1330.70 0.46075
1330.80 0.46075
1330.90 0.46076
1331.00 0.46078
1331.10 0.46079
1331.20 0.46080
1331.30 0.46082
1331.40 0.46083
1331.50 0.46084
1331.60 0.46085
1331.70 0.46087
1331.80 0.46088
1331.90 0.46089
1332.00 0.46090
1332.10 0.46091
1332.20 0.46092
1332.30 0.46093
1332.40 0.46094
1332.50 0.46095
1332.60 0.46096
1332.70 0.46096
1332.80 0.46097
1332.90 0.46098
1333.00 0.46099
1333.10 0.46099
1333.20 0.46100
1333.30 0.46101
1333.40 0.46101
1333.50 0.46102
1333.60 0.46102
1333.70 0.46103
1333.80 0.46103
1333.90 0.46104
1334.00 0.46104
1334.10 0.46105
1334.20 0.46105
1334.30 0.46105
1334.40 0.46105
1334.50 0.46106
1334.60 0.46106
1334.70 0.46106
1334.80 0.46106
1334.90 0.46106
1335.00 0.46106
1335.10 0.46106
1335.20 0.46106
1335.30 0.46106
1335.40 0.46106
1335.50 0.46106
1335.60 0.46108
1335.70 0.46110
1335.80 0.46112
1335.90 0.46114
1336.00 0.46117
1336.10 0.46119
1336.20 0.46121
1336.30 0.46124
1336.40 0.46126
1336.50 0.46129
1336.60 0.46131
1336.70 0.46134
1336.80 0.46137
1336.90 0.46139
1337.00 0.46142
1337.10 0.46145
1337.20 0.46148
1337.30 0.46151
1337.40 0.46154
1337.50 0.46157
1337.60 0.46160
1337.70 0.46163
1337.80 0.46166
1337.90 0.46170
1338.00 0.46173
1338.10 0.46176
1338.20 0.46180
1338.30 0.46183
1338.40 0.46187
1338.50 0.46191
1338.60 0.46194
1338.70 0.46198
1338.80 0.46202
1338.90 0.46206
1339.00 0.46210
1339.10 0.46214
1339.20 0.46218
1339.30 0.46222
1339.40 0.46226
1339.50 0.46230
1339.60 0.46234
1339.70 0.46238
1339.80 0.46243
1339.90 0.46247
1340.00 0.46252
1340.10 0.46256
1340.20 0.46261
1340.30 0.46266
1340.40 0.46271
1340.50 0.46276
1340.60 0.46281
1340.70 0.46286
1340.80 0.46292
1340.90 0.46297
1341.00 0.46303
1341.10 0.46308
1341.20 0.46314
1341.30 0.46319
1341.40 0.46325
1341.50 0.46331
1341.60 0.46337
1341.70 0.46343
1341.80 0.46349
1341.90 0.46355
1342.00 0.46361
1342.10 0.46367
1342.20 0.46373
1342.30 0.46380
1342.40 0.46386
1342.50 0.46392
1342.60 0.46399
1342.70 0.46406
1342.80 0.46412
1342.90 0.46419
1343.00 0.46426
1343.10 0.46433
1343.20 0.46440
1343.30 0.46447
1343.40 0.46454
1343.50 0.46461
1343.60 0.46468
1343.70 0.46475
1343.80 0.46483
1343.90 0.46490
1344.00 0.46498
1344.10 0.46505
1344.20 0.46513
1344.30 0.46521
1344.40 0.46528
1344.50 0.46536
1344.60 0.46544
1344.70 0.46552
1344.80 0.46560
1344.90 0.46567
1345.00 0.46573
1345.10 0.46580
1345.20 0.46586
1345.30 0.46593
1345.40 0.46599
1345.50 0.46606
1345.60 0.46613
1345.70 0.46619
1345.80 0.46626
1345.90 0.46632
1346.00 0.46639
1346.10 0.46645
1346.20 0.46652
1346.30 0.46659
1346.40 0.46665
1346.50 0.46672
1346.60 0.46678
1346.70 0.46685
1346.80 0.46691
1346.90 0.46698
1347.00 0.46705
1347.10 0.46711
1347.20 0.46718
1347.30 0.46724
1347.40 0.46731
1347.50 0.46738
1347.60 0.46744
1347.70 0.46751
1347.80 0.46757
1347.90 0.46764
1348.00 0.46771
1348.10 0.46777
1348.20 0.46784
1348.30 0.46791
1348.40 0.46797
1348.50 0.46804
1348.60 0.46810
1348.70 0.46817
1348.80 0.46824
1348.90 0.46830
1349.00 0.46837
1349.10 0.46844
1349.20 0.46850
1349.30 0.46857
1349.40 0.46864
1349.50 0.46869
1349.60 0.46874
1349.70 0.46879
1349.80 0.46883
1349.90 0.46888
1350.00 0.46892
1350.10 0.46896
1350.20 0.46901
1350.30 0.46905
1350.40 0.46909
1350.50 0.46913
1350.60 0.46917
1350.70 0.46921
1350.80 0.46924
1350.90 0.46928
1351.00 0.46932
1351.10 0.46935
1351.20 0.46939
1351.30 0.46942
1351.40 0.46945
1351.50 0.46949
1351.60 0.46952
1351.70 0.46955
1351.80 0.46958
1351.90 0.46961
1352.00 0.46963
1352.10 0.46966
1352.20 0.46969
1352.30 0.46972
1352.40 0.46974
1352.50 0.46976
1352.60 0.46979
1352.70 0.46981
1352.80 0.46983
1352.90 0.46985
1353.00 0.46988
1353.10 0.46990
1353.20 0.46991
1353.30 0.46993
1353.40 0.46995
1353.50 0.46997
1353.60 0.46998
1353.70 0.47000
1353.80 0.47001
1353.90 0.47003
1354.00 0.47004
1354.10 0.47005
1354.20 0.47006
1354.30 0.47007
1354.40 0.47008
1354.50 0.47009
1354.60 0.47009
1354.70 0.47010
1354.80 0.47010
1354.90 0.47011
1355.00 0.47011
1355.10 0.47012
1355.20 0.47012
1355.30 0.47012
1355.40 0.47012
1355.50 0.47012
1355.60 0.47012
1355.70 0.47012
1355.80 0.47011
1355.90 0.47011
1356.00 0.47010
1356.10 0.47010
1356.20 0.47009
1356.30 0.47009
1356.40 0.47008
1356.50 0.47007
1356.60 0.47006
1356.70 0.47005
1356.80 0.47004
1356.90 0.47003
1357.00 0.47001
1357.10 0.47000
1357.20 0.46999
1357.30 0.46997
1357.40 0.46996
1357.50 0.46994
1357.60 0.46992
1357.70 0.46990
1357.80 0.46988
1357.90 0.46986
1358.00 0.46984
1358.10 0.46982
1358.20 0.46980
1358.30 0.46978
1358.40 0.46975
1358.50 0.46973
1358.60 0.46970
1358.70 0.46968
1358.80 0.46965
1358.90 0.46964
1359.00 0.46962
1359.10 0.46960
1359.20 0.46959
1359.30 0.46957
1359.40 0.46955
1359.50 0.46953
1359.60 0.46951
1359.70 0.46950
1359.80 0.46948
1359.90 0.46946
1360.00 0.46944
1360.10 0.46942
1360.20 0.46940
1360.30 0.46937
1360.40 0.46935
1360.50 0.46933
1360.60 0.46931
1360.70 0.46929
1360.80 0.46927
1360.90 0.46924
1361.00 0.46922
1361.10 0.46920
1361.20 0.46917
1361.30 0.46915
1361.40 0.46912
1361.50 0.46910
1361.60 0.46907
1361.70 0.46905
1361.80 0.46902
1361.90 0.46900
1362.00 0.46897
1362.10 0.46894
1362.20 0.46891
1362.30 0.46889
1362.40 0.46886
1362.50 0.46883
1362.60 0.46880
1362.70 0.46877
1362.80 0.46875
1362.90 0.46872
1363.00 0.46869
1363.10 0.46866
1363.20 0.46863
1363.30 0.46859
1363.40 0.46856
1363.50 0.46854
1363.60 0.46851
1363.70 0.46848
1363.80 0.46845
1363.90 0.46842
1364.00 0.46840
1364.10 0.46837
1364.20 0.46834
1364.30 0.46831
1364.40 0.46828
1364.50 0.46825
1364.60 0.46822
1364.70 0.46819
1364.80 0.46816
1364.90 0.46813
1365.00 0.46810
1365.10 0.46807
1365.20 0.46804
1365.30 0.46801
1365.40 0.46798
1365.50 0.46795
1365.60 0.46792
1365.70 0.46789
1365.80 0.46786
1365.90 0.46783
1366.00 0.46780
1366.10 0.46776
1366.20 0.46773
1366.30 0.46770
1366.40 0.46767
1366.50 0.46764
1366.60 0.46760
1366.70 0.46757
1366.80 0.46754
1366.90 0.46750
1367.00 0.46747
1367.10 0.46744
1367.20 0.46741
1367.30 0.46737
1367.40 0.46734
1367.50 0.46730
1367.60 0.46727
1367.70 0.46724
1367.80 0.46720
1367.90 0.46717
1368.00 0.46713
1368.10 0.46710
1368.20 0.46706
1368.30 0.46703
1368.40 0.46699
1368.50 0.46696
1368.60 0.46692
1368.70 0.46688
1368.80 0.46685
1368.90 0.46681
1369.00 0.46678
1369.10 0.46674
1369.20 0.46670
1369.30 0.46667
1369.40 0.46663
1369.50 0.46659
1369.60 0.46656
1369.70 0.46652
1369.80 0.46648
1369.90 0.46644
1370.00 0.46640
1370.10 0.46637
1370.20 0.46633
1370.30 0.46629
1370.40 0.46625
1370.50 0.46621
1370.60 0.46617
1370.70 0.46614
1370.80 0.46610
1370.90 0.46606
1371.00 0.46602
1371.10 0.46598
1371.20 0.46594
1371.30 0.46590
1371.40 0.46586
1371.50 0.46582
1371.60 0.46578
1371.70 0.46574
1371.80 0.46570
1371.90 0.46566
1372.00 0.46562
1372.10 0.46557
1372.20 0.46553
1372.30 0.46549
1372.40 0.46545
1372.50 0.46541
1372.60 0.46537
1372.70 0.46532
1372.80 0.46528
1372.90 0.46524
1373.00 0.46520
1373.10 0.46515
1373.20 0.46511
1373.30 0.46507
1373.40 0.46502
1373.50 0.46498
1373.60 0.46494
1373.70 0.46489
1373.80 0.46485
1373.90 0.46480
1374.00 0.46476
1374.10 0.46471
1374.20 0.46467
1374.30 0.46462
1374.40 0.46458
1374.50 0.46453
1374.60 0.46449
1374.70 0.46444
1374.80 0.46440
1374.90 0.46435
1375.00 0.46430
1375.10 0.46426
1375.20 0.46421
1375.30 0.46416
1375.40 0.46412
1375.50 0.46407
1375.60 0.46402
1375.70 0.46398
1375.80 0.46393
1375.90 0.46388
1376.00 0.46383
1376.10 0.46379
1376.20 0.46374
1376.30 0.46369
1376.40 0.46364
1376.50 0.46359
1376.60 0.46354
1376.70 0.46349
1376.80 0.46344
1376.90 0.46340
1377.00 0.46335
1377.10 0.46330
1377.20 0.46325
1377.30 0.46320
1377.40 0.46315
1377.50 0.46311
1377.60 0.46307
1377.70 0.46303
1377.80 0.46298
1377.90 0.46294
1378.00 0.46290
1378.10 0.46286
1378.20 0.46282
1378.30 0.46278
1378.40 0.46274
1378.50 0.46270
1378.60 0.46266
1378.70 0.46262
1378.80 0.46258
1378.90 0.46254
1379.00 0.46250
1379.10 0.46247
1379.20 0.46243
1379.30 0.46239
1379.40 0.46235
1379.50 0.46231
1379.60 0.46228
1379.70 0.46224
1379.80 0.46220
1379.90 0.46216
1380.00 0.46213
1380.10 0.46209
1380.20 0.46205
1380.30 0.46202
1380.40 0.46198
1380.50 0.46194
1380.60 0.46191
1380.70 0.46187
1380.80 0.46184
1380.90 0.46180
1381.00 0.46177
1381.10 0.46173
1381.20 0.46170
1381.30 0.46166
1381.40 0.46163
1381.50 0.46159
1381.60 0.46156
1381.70 0.46152
1381.80 0.46149
1381.90 0.46146
1382.00 0.46142
1382.10 0.46140
1382.20 0.46137
1382.30 0.46135
1382.40 0.46133
1382.50 0.46130
1382.60 0.46128
1382.70 0.46126
1382.80 0.46124
1382.90 0.46121
1383.00 0.46119
1383.10 0.46117
1383.20 0.46115
1383.30 0.46113
1383.40 0.46112
1383.50 0.46110
1383.60 0.46108
1383.70 0.46106
1383.80 0.46105
1383.90 0.46103
1384.00 0.46101
1384.10 0.46100
1384.20 0.46099
1384.30 0.46097
1384.40 0.46096
1384.50 0.46094
1384.60 0.46093
1384.70 0.46092
1384.80 0.46091
1384.90 0.46090
1385.00 0.46089
1385.10 0.46088
1385.20 0.46087
1385.30 0.46086
1385.40 0.46085
1385.50 0.46084
1385.60 0.46083
1385.70 0.46083
1385.80 0.46082
1385.90 0.46082
1386.00 0.46081
1386.10 0.46080
1386.20 0.46080
1386.30 0.46080
1386.40 0.46079
1386.50 0.46079
1386.60 0.46079
1386.70 0.46079
1386.80 0.46078
1386.90 0.46078
1387.00 0.46078
1387.10 0.46078
1387.20 0.46078
1387.30 0.46078
1387.40 0.46078
1387.50 0.46078
1387.60 0.46078
1387.70 0.46078
1387.80 0.46078
1387.90 0.46079
1388.00 0.46079
1388.10 0.46079
1388.20 0.46080
1388.30 0.46080
1388.40 0.46080
1388.50 0.46081
1388.60 0.46082
1388.70 0.46082
1388.80 0.46083
1388.90 0.46083
1389.00 0.46084
1389.10 0.46085
1389.20 0.46086
1389.30 0.46087
1389.40 0.46088
1389.50 0.46089
1389.60 0.46090
1389.70 0.46091
1389.80 0.46092
1389.90 0.46093
1390.00 0.46094
1390.10 0.46095
1390.20 0.46097
1390.30 0.46098
1390.40 0.46100
1390.50 0.46101
1390.60 0.46102
1390.70 0.46104
1390.80 0.46106
1390.90 0.46107
1391.00 0.46109
1391.10 0.46110
1391.20 0.46112
1391.30 0.46114
1391.40 0.46115
1391.50 0.46116
1391.60 0.46118
1391.70 0.46119
1391.80 0.46120
1391.90 0.46122
1392.00 0.46123
1392.10 0.46124
1392.20 0.46126
1392.30 0.46127
1392.40 0.46128
1392.50 0.46130
1392.60 0.46131
1392.70 0.46133
1392.80 0.46134
1392.90 0.46136
1393.00 0.46137
1393.10 0.46139
1393.20 0.46140
1393.30 0.46142
1393.40 0.46143
1393.50 0.46145
1393.60 0.46146
1393.70 0.46148
1393.80 0.46150
1393.90 0.46151
1394.00 0.46153
1394.10 0.46155
1394.20 0.46157
1394.30 0.46158
1394.40 0.46160
1394.50 0.46162
1394.60 0.46164
1394.70 0.46165
1394.80 0.46167
1394.90 0.46169
1395.00 0.46171
1395.10 0.46173
1395.20 0.46175
1395.30 0.46177
1395.40 0.46179
1395.50 0.46181
1395.60 0.46183
1395.70 0.46185
1395.80 0.46187
1395.90 0.46189
1396.00 0.46191
1396.10 0.46194
1396.20 0.46197
1396.30 0.46200
1396.40 0.46203
1396.50 0.46206
1396.60 0.46209
1396.70 0.46212
1396.80 0.46215
1396.90 0.46218
1397.00 0.46222
1397.10 0.46225
1397.20 0.46228
1397.30 0.46232
1397.40 0.46235
1397.50 0.46239
1397.60 0.46242
1397.70 0.46246
1397.80 0.46249
1397.90 0.46253
1398.00 0.46257
1398.10 0.46261
1398.20 0.46264
1398.30 0.46268
1398.40 0.46272
1398.50 0.46276
1398.60 0.46280
1398.70 0.46284
1398.80 0.46288
1398.90 0.46293
1399.00 0.46297
1399.10 0.46301
1399.20 0.46305
1399.30 0.46310
1399.40 0.46314
1399.50 0.46319
1399.60 0.46323
1399.70 0.46328
1399.80 0.46332
1399.90 0.46337
1400.00 0.46342
1400.10 0.46347
1400.20 0.46351
1400.30 0.46356
1400.40 0.46361
1400.50 0.46366
1400.60 0.46371
1400.70 0.46376
1400.80 0.46382
1400.90 0.46387
1401.00 0.46393
1401.10 0.46399
1401.20 0.46404
1401.30 0.46410
1401.40 0.46416
1401.50 0.46422
1401.60 0.46427
1401.70 0.46433
1401.80 0.46439
1401.90 0.46446
1402.00 0.46452
1402.10 0.46458
1402.20 0.46464
1402.30 0.46470
1402.40 0.46477
1402.50 0.46483
1402.60 0.46490
1402.70 0.46496
1402.80 0.46503
1402.90 0.46510
1403.00 0.46517
1403.10 0.46523
1403.20 0.46530
1403.30 0.46537
1403.40 0.46544
1403.50 0.46551
1403.60 0.46558
1403.70 0.46566
1403.80 0.46573
1403.90 0.46580
1404.00 0.46587
1404.10 0.46595
1404.20 0.46602
1404.30 0.46610
1404.40 0.46618
1404.50 0.46625
1404.60 0.46633
1404.70 0.46641
1404.80 0.46649
1404.90 0.46657
1405.00 0.46664
1405.10 0.46673
1405.20 0.46681
1405.30 0.46688
1405.40 0.46695
1405.50 0.46702
1405.60 0.46709
1405.70 0.46716
1405.80 0.46723
1405.90 0.46730
1406.00 0.46737
1406.10 0.46744
1406.20 0.46752
1406.30 0.46759
1406.40 0.46766
1406.50 0.46773
1406.60 0.46780
1406.70 0.46787
1406.80 0.46794
1406.90 0.46801
1407.00 0.46809
1407.10 0.46816
1407.20 0.46823
1407.30 0.46830
1407.40 0.46837
1407.50 0.46845
1407.60 0.46852
1407.70 0.46859
1407.80 0.46866
1407.90 0.46874
1408.00 0.46881
1408.10 0.46888
1408.20 0.46895
1408.30 0.46903
1408.40 0.46910
1408.50 0.46917
1408.60 0.46925
1408.70 0.46932
1408.80 0.46939
1408.90 0.46947
1409.00 0.46954
1409.10 0.46962
1409.20 0.46969
1409.30 0.46976
1409.40 0.46984
1409.50 0.46991
1409.60 0.46999
1409.70 0.47006
1409.80 0.47014
1409.90 0.47021
1410.00 0.47026
1410.10 0.47032
1410.20 0.47037
1410.30 0.47042
1410.40 0.47047
1410.50 0.47051
1410.60 0.47056
1410.70 0.47061
1410.80 0.47066
1410.90 0.47070
1411.00 0.47075
1411.10 0.47079
1411.20 0.47083
1411.30 0.47088
1411.40 0.47092
1411.50 0.47096
1411.60 0.47100
1411.70 0.47104
1411.80 0.47107
1411.90 0.47111
1412.00 0.47115
1412.10 0.47118
1412.20 0.47122
1412.30 0.47125
1412.40 0.47129
1412.50 0.47132
1412.60 0.47135
1412.70 0.47138
1412.80 0.47141
1412.90 0.47144
1413.00 0.47147
1413.10 0.47150
1413.20 0.47152
1413.30 0.47155
1413.40 0.47157
1413.50 0.47160
1413.60 0.47162
1413.70 0.47164
1413.80 0.47167
1413.90 0.47169
1414.00 0.47171
1414.10 0.47173
1414.20 0.47174
1414.30 0.47176
1414.40 0.47178
1414.50 0.47180
1414.60 0.47181
1414.70 0.47183
1414.80 0.47184
1414.90 0.47185
1415.00 0.47187
1415.10 0.47188
1415.20 0.47189
1415.30 0.47190
1415.40 0.47191
1415.50 0.47192
1415.60 0.47193
1415.70 0.47194
1415.80 0.47194
1415.90 0.47195
1416.00 0.47195
1416.10 0.47196
1416.20 0.47196
1416.30 0.47196
1416.40 0.47197
1416.50 0.47197
1416.60 0.47197
1416.70 0.47197
1416.80 0.47197
1416.90 0.47196
1417.00 0.47196
1417.10 0.47196
1417.20 0.47195
1417.30 0.47195
1417.40 0.47194
1417.50 0.47194
1417.60 0.47193
1417.70 0.47192
1417.80 0.47191
1417.90 0.47190
1418.00 0.47189
1418.10 0.47188
1418.20 0.47187
1418.30 0.47186
1418.40 0.47184
1418.50 0.47183
1418.60 0.47181
1418.70 0.47180
1418.80 0.47178
1418.90 0.47176
1419.00 0.47175
1419.10 0.47173
1419.20 0.47171
1419.30 0.47171
1419.40 0.47172
1419.50 0.47173
1419.60 0.47173
1419.70 0.47174
1419.80 0.47175
1419.90 0.47176
1420.00 0.47176
1420.10 0.47177
1420.20 0.47178
1420.30 0.47179
1420.40 0.47180
1420.50 0.47181
1420.60 0.47182
1420.70 0.47183
1420.80 0.47184
1420.90 0.47185
1421.00 0.47187
1421.10 0.47188
1421.20 0.47189
1421.30 0.47190
1421.40 0.47192
1421.50 0.47193
1421.60 0.47194
1421.70 0.47196
1421.80 0.47197
1421.90 0.47199
1422.00 0.47200
1422.10 0.47202
1422.20 0.47203
1422.30 0.47205
1422.40 0.47207
1422.50 0.47208
1422.60 0.47210
1422.70 0.47212
1422.80 0.47213
1422.90 0.47215
1423.00 0.47217
1423.10 0.47219
1423.20 0.47221
1423.30 0.47223
1423.40 0.47225
1423.50 0.47227
1423.60 0.47229
1423.70 0.47231
1423.80 0.47233
1423.90 0.47236
1424.00 0.47239
1424.10 0.47243
1424.20 0.47247
1424.30 0.47250
1424.40 0.47254
1424.50 0.47258
1424.60 0.47262
1424.70 0.47266
1424.80 0.47270
1424.90 0.47274
1425.00 0.47279
1425.10 0.47283
1425.20 0.47288
1425.30 0.47292
1425.40 0.47297
1425.50 0.47301
1425.60 0.47306
1425.70 0.47311
1425.80 0.47316
1425.90 0.47321
1426.00 0.47326
1426.10 0.47332
1426.20 0.47337
1426.30 0.47343
1426.40 0.47348
1426.50 0.47354
1426.60 0.47359
1426.70 0.47365
1426.80 0.47371
1426.90 0.47377
1427.00 0.47383
1427.10 0.47389
1427.20 0.47395
1427.30 0.47401
1427.40 0.47408
1427.50 0.47414
1427.60 0.47421
1427.70 0.47427
1427.80 0.47434
1427.90 0.47441
1428.00 0.47448
1428.10 0.47455
1428.20 0.47462
1428.30 0.47469
1428.40 0.47476
1428.50 0.47484
1428.60 0.47489
1428.70 0.47495
1428.80 0.47500
1428.90 0.47506
1429.00 0.47512
1429.10 0.47517
1429.20 0.47523
1429.30 0.47529
1429.40 0.47534
1429.50 0.47540
1429.60 0.47546
1429.70 0.47551
1429.80 0.47557
1429.90 0.47563
1430.00 0.47569
1430.10 0.47574
1430.20 0.47580
1430.30 0.47586
1430.40 0.47592
1430.50 0.47598
1430.60 0.47603
1430.70 0.47609
1430.80 0.47615
1430.90 0.47621
1431.00 0.47627
1431.10 0.47633
1431.20 0.47638
1431.30 0.47644
1431.40 0.47650
1431.50 0.47656
1431.60 0.47662
1431.70 0.47668
1431.80 0.47674
1431.90 0.47680
1432.00 0.47686
1432.10 0.47692
1432.20 0.47698
1432.30 0.47704
1432.40 0.47710
1432.50 0.47716
1432.60 0.47722
1432.70 0.47728
1432.80 0.47734
1432.90 0.47740
1433.00 0.47746
1433.10 0.47752
1433.20 0.47757
1433.30 0.47761
1433.40 0.47765
1433.50 0.47769
1433.60 0.47773
1433.70 0.47777
1433.80 0.47780
1433.90 0.47784
1434.00 0.47788
1434.10 0.47791
1434.20 0.47795
1434.30 0.47798
1434.40 0.47801
1434.50 0.47804
1434.60 0.47808
1434.70 0.47811
1434.80 0.47814
1434.90 0.47817
1435.00 0.47819
1435.10 0.47822
1435.20 0.47825
1435.30 0.47827
1435.40 0.47830
1435.50 0.47833
1435.60 0.47835
1435.70 0.47837
1435.80 0.47840
1435.90 0.47842
1436.00 0.47844
1436.10 0.47846
1436.20 0.47848
1436.30 0.47850
1436.40 0.47852
1436.50 0.47854
1436.60 0.47855
1436.70 0.47857
1436.80 0.47858
1436.90 0.47860
1437.00 0.47861
1437.10 0.47863
1437.20 0.47864
1437.30 0.47865
1437.40 0.47866
1437.50 0.47867
1437.60 0.47868
1437.70 0.47869
1437.80 0.47870
1437.90 0.47871
1438.00 0.47871
1438.10 0.47872
1438.20 0.47872
1438.30 0.47872
1438.40 0.47872
1438.50 0.47873
1438.60 0.47873
1438.70 0.47873
1438.80 0.47872
1438.90 0.47872
1439.00 0.47872
1439.10 0.47872
1439.20 0.47871
1439.30 0.47871
1439.40 0.47870
1439.50 0.47869
1439.60 0.47869
1439.70 0.47868
1439.80 0.47867
1439.90 0.47866
1440.00 0.47865
1440.10 0.47864
1440.20 0.47862
1440.30 0.47861
1440.40 0.47860
1440.50 0.47858
1440.60 0.47857
1440.70 0.47855
1440.80 0.47853
1440.90 0.47851
1441.00 0.47850
1441.10 0.47848
1441.20 0.47846
1441.30 0.47843
1441.40 0.47841
1441.50 0.47839
1441.60 0.47837
1441.70 0.47834
1441.80 0.47832
1441.90 0.47829
1442.00 0.47827
1442.10 0.47824
1442.20 0.47821
1442.30 0.47818
1442.40 0.47815
1442.50 0.47813
1442.60 0.47811
1442.70 0.47809
1442.80 0.47807
1442.90 0.47805
1443.00 0.47803
1443.10 0.47801
1443.20 0.47798
1443.30 0.47796
1443.40 0.47794
1443.50 0.47792
1443.60 0.47790
1443.70 0.47787
1443.80 0.47785
1443.90 0.47783
1444.00 0.47781
1444.10 0.47778
1444.20 0.47776
1444.30 0.47773
1444.40 0.47771
1444.50 0.47768
1444.60 0.47766
1444.70 0.47763
1444.80 0.47761
1444.90 0.47758
1445.00 0.47755
1445.10 0.47753
1445.20 0.47750
1445.30 0.47747
1445.40 0.47745
1445.50 0.47742
1445.60 0.47739
1445.70 0.47736
1445.80 0.47733
1445.90 0.47730
1446.00 0.47727
1446.10 0.47724
1446.20 0.47721
1446.30 0.47718
1446.40 0.47715
1446.50 0.47712
1446.60 0.47709
1446.70 0.47706
1446.80 0.47703
1446.90 0.47700
1447.00 0.47696
1447.10 0.47693
1447.20 0.47691
1447.30 0.47688
1447.40 0.47686
1447.50 0.47683
1447.60 0.47681
1447.70 0.47679
1447.80 0.47676
1447.90 0.47674
1448.00 0.47671
1448.10 0.47669
1448.20 0.47667
1448.30 0.47664
1448.40 0.47662
1448.50 0.47659
1448.60 0.47657
1448.70 0.47655
1448.80 0.47652
1448.90 0.47650
1449.00 0.47648
1449.10 0.47645
1449.20 0.47643
1449.30 0.47641
1449.40 0.47638
1449.50 0.47636
1449.60 0.47634
1449.70 0.47632
1449.80 0.47629
1449.90 0.47627
1450.00 0.47625
1450.10 0.47622
1450.20 0.47620
1450.30 0.47618
1450.40 0.47616
1450.50 0.47613
1450.60 0.47611
1450.70 0.47609
1450.80 0.47607
1450.90 0.47604
1451.00 0.47602
1451.10 0.47600
1451.20 0.47598
1451.30 0.47596
1451.40 0.47593
1451.50 0.47591
1451.60 0.47589
1451.70 0.47587
1451.80 0.47585
1451.90 0.47582
1452.00 0.47580
1452.10 0.47578
1452.20 0.47575
1452.30 0.47573
1452.40 0.47571
1452.50 0.47568
1452.60 0.47566
1452.70 0.47564
1452.80 0.47561
1452.90 0.47559
1453.00 0.47557
1453.10 0.47555
1453.20 0.47552
1453.30 0.47550
1453.40 0.47548
1453.50 0.47545
1453.60 0.47543
1453.70 0.47541
1453.80 0.47538
1453.90 0.47536
1454.00 0.47534
1454.10 0.47532
1454.20 0.47529
1454.30 0.47527
1454.40 0.47525
1454.50 0.47522
1454.60 0.47520
1454.70 0.47518
1454.80 0.47515
1454.90 0.47513
1455.00 0.47511
1455.10 0.47509
1455.20 0.47506
1455.30 0.47504
1455.40 0.47502
1455.50 0.47499
1455.60 0.47497
1455.70 0.47495
1455.80 0.47492
1455.90 0.47490
1456.00 0.47488
1456.10 0.47486
1456.20 0.47483
1456.30 0.47481
1456.40 0.47479
1456.50 0.47476
1456.60 0.47474
1456.70 0.47471
1456.80 0.47469
1456.90 0.47467
1457.00 0.47464
1457.10 0.47462
1457.20 0.47459
1457.30 0.47457
1457.40 0.47454
1457.50 0.47452
1457.60 0.47450
1457.70 0.47447
1457.80 0.47445
1457.90 0.47442
1458.00 0.47440
1458.10 0.47437
1458.20 0.47435
1458.30 0.47432
1458.40 0.47430
1458.50 0.47427
1458.60 0.47425
1458.70 0.47422
1458.80 0.47420
1458.90 0.47417
1459.00 0.47415
1459.10 0.47412
1459.20 0.47410
1459.30 0.47407
1459.40 0.47405
1459.50 0.47402
1459.60 0.47400
1459.70 0.47397
1459.80 0.47395
1459.90 0.47392
1460.00 0.47390
1460.10 0.47387
1460.20 0.47384
1460.30 0.47382
1460.40 0.47379
1460.50 0.47377
1460.60 0.47374
1460.70 0.47372
1460.80 0.47369
1460.90 0.47366
1461.00 0.47364
1461.10 0.47361
1461.20 0.47358
1461.30 0.47355
1461.40 0.47352
1461.50 0.47349
1461.60 0.47346
1461.70 0.47343
1461.80 0.47340
1461.90 0.47337
1462.00 0.47334
1462.10 0.47331
1462.20 0.47328
1462.30 0.47325
1462.40 0.47322
1462.50 0.47319
1462.60 0.47315
1462.70 0.47312
1462.80 0.47309
1462.90 0.47306
1463.00 0.47303
1463.10 0.47299
1463.20 0.47296
1463.30 0.47293
1463.40 0.47289
1463.50 0.47286
1463.60 0.47283
1463.70 0.47279
1463.80 0.47276
1463.90 0.47273
1464.00 0.47269
1464.10 0.47266
1464.20 0.47262
1464.30 0.47259
1464.40 0.47255
1464.50 0.47252
1464.60 0.47248
1464.70 0.47245
1464.80 0.47241
1464.90 0.47238
1465.00 0.47234
1465.10 0.47231
1465.20 0.47227
1465.30 0.47223
1465.40 0.47220
1465.50 0.47216
1465.60 0.47212
1465.70 0.47209
1465.80 0.47205
1465.90 0.47201
1466.00 0.47198
1466.10 0.47194
1466.20 0.47190
1466.30 0.47186
1466.40 0.47183
1466.50 0.47179
1466.60 0.47175
1466.70 0.47171
1466.80 0.47167
1466.90 0.47164
1467.00 0.47160
1467.10 0.47156
1467.20 0.47152
1467.30 0.47148
1467.40 0.47144
1467.50 0.47140
1467.60 0.47136
1467.70 0.47132
1467.80 0.47128
1467.90 0.47124
1468.00 0.47120
1468.10 0.47116
1468.20 0.47112
1468.30 0.47108
1468.40 0.47104
1468.50 0.47100
1468.60 0.47096
1468.70 0.47092
1468.80 0.47088
1468.90 0.47084
1469.00 0.47080
1469.10 0.47075
1469.20 0.47071
1469.30 0.47067
1469.40 0.47063
1469.50 0.47059
1469.60 0.47054
1469.70 0.47050
1469.80 0.47046
1469.90 0.47041
1470.00 0.47037
1470.10 0.47033
1470.20 0.47029
1470.30 0.47024
1470.40 0.47020
1470.50 0.47016
1470.60 0.47011
1470.70 0.47007
1470.80 0.47002
1470.90 0.46998
1471.00 0.46994
1471.10 0.46989
1471.20 0.46985
1471.30 0.46981
1471.40 0.46976
1471.50 0.46972
1471.60 0.46967
1471.70 0.46963
1471.80 0.46958
1471.90 0.46954
1472.00 0.46949
1472.10 0.46945
1472.20 0.46940
1472.30 0.46936
1472.40 0.46931
1472.50 0.46927
1472.60 0.46922
1472.70 0.46917
1472.80 0.46913
1472.90 0.46908
1473.00 0.46904
1473.10 0.46899
1473.20 0.46894
1473.30 0.46890
1473.40 0.46885
1473.50 0.46880
1473.60 0.46875
1473.70 0.46871
1473.80 0.46866
1473.90 0.46861
1474.00 0.46857
1474.10 0.46852
1474.20 0.46847
1474.30 0.46842
1474.40 0.46837
1474.50 0.46833
1474.60 0.46828
1474.70 0.46823
1474.80 0.46818
1474.90 0.46813
1475.00 0.46808
1475.10 0.46804
1475.20 0.46800
1475.30 0.46796
1475.40 0.46792
1475.50 0.46788
1475.60 0.46784
1475.70 0.46780
1475.80 0.46776
1475.90 0.46773
1476.00 0.46769
1476.10 0.46765
1476.20 0.46761
1476.30 0.46757
1476.40 0.46754
1476.50 0.46750
1476.60 0.46746
1476.70 0.46742
1476.80 0.46739
1476.90 0.46735
1477.00 0.46731
1477.10 0.46728
1477.20 0.46724
1477.30 0.46721
1477.40 0.46717
1477.50 0.46714
1477.60 0.46710
1477.70 0.46707
1477.80 0.46703
1477.90 0.46700
1478.00 0.46696
1478.10 0.46693
1478.20 0.46690
1478.30 0.46686
1478.40 0.46683
1478.50 0.46680
1478.60 0.46676
1478.70 0.46673
1478.80 0.46670
1478.90 0.46667
1479.00 0.46663
1479.10 0.46660
1479.20 0.46657
1479.30 0.46654
1479.40 0.46651
1479.50 0.46648
1479.60 0.46645
1479.70 0.46642
1479.80 0.46640
1479.90 0.46637
1480.00 0.46635
1480.10 0.46633
1480.20 0.46630
1480.30 0.46628
1480.40 0.46626
1480.50 0.46624
1480.60 0.46622
1480.70 0.46620
1480.80 0.46618
1480.90 0.46616
1481.00 0.46614
1481.10 0.46612
1481.20 0.46610
1481.30 0.46609
1481.40 0.46607
1481.50 0.46605
1481.60 0.46604
1481.70 0.46602
1481.80 0.46601
1481.90 0.46599
1482.00 0.46598
1482.10 0.46596
1482.20 0.46595
1482.30 0.46594
1482.40 0.46592
1482.50 0.46591
1482.60 0.46590
1482.70 0.46589
1482.80 0.46588
1482.90 0.46587
1483.00 0.46586
1483.10 0.46585
1483.20 0.46584
1483.30 0.46583
1483.40 0.46583
1483.50 0.46582
1483.60 0.46581
1483.70 0.46580
1483.80 0.46580
1483.90 0.46579
1484.00 0.46579
1484.10 0.46578
1484.20 0.46578
1484.30 0.46578
1484.40 0.46578
1484.50 0.46578
1484.60 0.46579
1484.70 0.46580
1484.80 0.46580
1484.90 0.46581
1485.00 0.46582
1485.10 0.46583
1485.20 0.46584
1485.30 0.46585
1485.40 0.46586
1485.50 0.46587
1485.60 0.46589
1485.70 0.46590
1485.80 0.46591
1485.90 0.46593
1486.00 0.46595
1486.10 0.46596
1486.20 0.46598
1486.30 0.46600
1486.40 0.46602
1486.50 0.46604
1486.60 0.46606
1486.70 0.46608
1486.80 0.46610
1486.90 0.46612
1487.00 0.46615
1487.10 0.46617
1487.20 0.46620
1487.30 0.46622
1487.40 0.46625
1487.50 0.46628
1487.60 0.46631
1487.70 0.46633
1487.80 0.46636
1487.90 0.46639
1488.00 0.46643
1488.10 0.46646
1488.20 0.46649
1488.30 0.46652
1488.40 0.46656
1488.50 0.46659
1488.60 0.46663
1488.70 0.46666
1488.80 0.46670
1488.90 0.46674
1489.00 0.46678
1489.10 0.46681
1489.20 0.46685
1489.30 0.46689
1489.40 0.46693
1489.50 0.46697
1489.60 0.46701
1489.70 0.46705
1489.80 0.46709
1489.90 0.46714
1490.00 0.46718
1490.10 0.46722
1490.20 0.46727
1490.30 0.46731
1490.40 0.46736
1490.50 0.46740
1490.60 0.46745
1490.70 0.46750
1490.80 0.46755
1490.90 0.46760
1491.00 0.46765
1491.10 0.46770
1491.20 0.46775
1491.30 0.46780
1491.40 0.46785
1491.50 0.46790
1491.60 0.46796
1491.70 0.46801
1491.80 0.46807
1491.90 0.46812
1492.00 0.46818
1492.10 0.46823
1492.20 0.46829
1492.30 0.46835
1492.40 0.46841
1492.50 0.46847
1492.60 0.46853
1492.70 0.46859
1492.80 0.46865
1492.90 0.46871
1493.00 0.46878
1493.10 0.46884
1493.20 0.46890
1493.30 0.46897
1493.40 0.46903
1493.50 0.46910
1493.60 0.46917
1493.70 0.46922
1493.80 0.46927
1493.90 0.46932
1494.00 0.46937
1494.10 0.46942
1494.20 0.46948
1494.30 0.46953
1494.40 0.46958
1494.50 0.46963
1494.60 0.46968
1494.70 0.46973
1494.80 0.46978
1494.90 0.46984
1495.00 0.46989
1495.10 0.46994
1495.20 0.46999
1495.30 0.47004
1495.40 0.47009
1495.50 0.47015
1495.60 0.47020
1495.70 0.47025
1495.80 0.47030
1495.90 0.47035
1496.00 0.47040
1496.10 0.47045
1496.20 0.47051
1496.30 0.47056
1496.40 0.47061
1496.50 0.47066
1496.60 0.47071
1496.70 0.47076
1496.80 0.47082
1496.90 0.47087
1497.00 0.47092
1497.10 0.47097
1497.20 0.47102
1497.30 0.47107
1497.40 0.47112
1497.50 0.47118
1497.60 0.47123
1497.70 0.47128
1497.80 0.47133
1497.90 0.47138
1498.00 0.47143
1498.10 0.47148
1498.20 0.47153
1498.30 0.47158
1498.40 0.47161
1498.50 0.47165
1498.60 0.47168
1498.70 0.47171
1498.80 0.47174
1498.90 0.47177
1499.00 0.47180
1499.10 0.47183
1499.20 0.47186
1499.30 0.47189
1499.40 0.47192
1499.50 0.47194
1499.60 0.47197
1499.70 0.47200
1499.80 0.47202
1499.90 0.47204
1500.00 0.47207
1500.10 0.47209
1500.20 0.47211
1500.30 0.47213
1500.40 0.47215
1500.50 0.47217
1500.60 0.47219
1500.70 0.47221
1500.80 0.47223
1500.90 0.47225
1501.00 0.47226
1501.10 0.47228
1501.20 0.47229
1501.30 0.47231
1501.40 0.47232
1501.50 0.47233
1501.60 0.47234
1501.70 0.47236
1501.80 0.47237
1501.90 0.47238
1502.00 0.47239
1502.10 0.47239
1502.20 0.47240
1502.30 0.47241
1502.40 0.47242
1502.50 0.47242
1502.60 0.47243
1502.70 0.47243
1502.80 0.47243
1502.90 0.47244
1503.00 0.47244
1503.10 0.47244
1503.20 0.47244
1503.30 0.47244
1503.40 0.47243
1503.50 0.47243
1503.60 0.47243
1503.70 0.47242
1503.80 0.47242
1503.90 0.47241
1504.00 0.47240
1504.10 0.47240
1504.20 0.47239
1504.30 0.47238
1504.40 0.47237
1504.50 0.47236
1504.60 0.47235
1504.70 0.47233
1504.80 0.47232
1504.90 0.47231
1505.00 0.47229
1505.10 0.47228
1505.20 0.47226
1505.30 0.47224
1505.40 0.47223
1505.50 0.47221
1505.60 0.47219
1505.70 0.47217
1505.80 0.47215
1505.90 0.47213
1506.00 0.47210
1506.10 0.47208
1506.20 0.47206
1506.30 0.47203
1506.40 0.47201
1506.50 0.47198
1506.60 0.47196
1506.70 0.47193
1506.80 0.47190
1506.90 0.47187
1507.00 0.47184
1507.10 0.47181
1507.20 0.47178
1507.30 0.47175
1507.40 0.47171
1507.50 0.47168
1507.60 0.47165
1507.70 0.47163
1507.80 0.47161
1507.90 0.47159
1508.00 0.47156
1508.10 0.47154
1508.20 0.47152
1508.30 0.47149
1508.40 0.47147
1508.50 0.47145
1508.60 0.47142
1508.70 0.47140
1508.80 0.47137
1508.90 0.47135
1509.00 0.47132
1509.10 0.47130
1509.20 0.47127
1509.30 0.47125
1509.40 0.47122
1509.50 0.47119
1509.60 0.47117
1509.70 0.47114
1509.80 0.47111
1509.90 0.47109
1510.00 0.47106
1510.10 0.47103
1510.20 0.47100
1510.30 0.47098
1510.40 0.47095
1510.50 0.47092
1510.60 0.47089
1510.70 0.47086
1510.80 0.47083
1510.90 0.47080
1511.00 0.47077
1511.10 0.47074
1511.20 0.47071
1511.30 0.47068
1511.40 0.47065
1511.50 0.47062
1511.60 0.47059
1511.70 0.47056
1511.80 0.47053
1511.90 0.47050
1512.00 0.47047
1512.10 0.47043
1512.20 0.47040
1512.30 0.47039
1512.40 0.47037
1512.50 0.47035
1512.60 0.47034
1512.70 0.47033
1512.80 0.47031
1512.90 0.47030
1513.00 0.47029
1513.10 0.47028
1513.20 0.47026
1513.30 0.47025
1513.40 0.47024
1513.50 0.47023
1513.60 0.47022
1513.70 0.47021
1513.80 0.47020
1513.90 0.47020
1514.00 0.47019
1514.10 0.47018
1514.20 0.47017
1514.30 0.47017
1514.40 0.47016
1514.50 0.47016
1514.60 0.47015
1514.70 0.47015
1514.80 0.47014
1514.90 0.47014
1515.00 0.47014
1515.10 0.47013
1515.20 0.47013
1515.30 0.47013
1515.40 0.47013
1515.50 0.47013
1515.60 0.47013
1515.70 0.47013
1515.80 0.47013
1515.90 0.47013
1516.00 0.47013
1516.10 0.47013
1516.20 0.47014
1516.30 0.47014
1516.40 0.47014
1516.50 0.47015
1516.60 0.47015
1516.70 0.47016
1516.80 0.47016
1516.90 0.47017
1517.00 0.47017
1517.10 0.47017
1517.20 0.47017
1517.30 0.47017
1517.40 0.47018
1517.50 0.47018
1517.60 0.47018
1517.70 0.47019
1517.80 0.47019
1517.90 0.47020
1518.00 0.47020
1518.10 0.47021
1518.20 0.47021
1518.30 0.47022
1518.40 0.47022
1518.50 0.47023
1518.60 0.47023
1518.70 0.47024
1518.80 0.47025
1518.90 0.47025
1519.00 0.47026
1519.10 0.47027
1519.20 0.47028
1519.30 0.47029
1519.40 0.47029
1519.50 0.47030
1519.60 0.47031
1519.70 0.47032
1519.80 0.47033
1519.90 0.47034
1520.00 0.47035
1520.10 0.47036
1520.20 0.47037
1520.30 0.47038
1520.40 0.47040
1520.50 0.47041
1520.60 0.47042
1520.70 0.47043
1520.80 0.47044
1520.90 0.47046
1521.00 0.47047
1521.10 0.47048
1521.20 0.47050
1521.30 0.47051
1521.40 0.47052
1521.50 0.47054
1521.60 0.47054
1521.70 0.47055
1521.80 0.47055
1521.90 0.47056
1522.00 0.47056
1522.10 0.47056
1522.20 0.47057
1522.30 0.47057
1522.40 0.47057
1522.50 0.47057
1522.60 0.47058
1522.70 0.47058
1522.80 0.47058
1522.90 0.47058
1523.00 0.47059
1523.10 0.47059
1523.20 0.47059
1523.30 0.47059
1523.40 0.47059
1523.50 0.47059
1523.60 0.47059
1523.70 0.47060
1523.80 0.47060
1523.90 0.47060
1524.00 0.47060
1524.10 0.47060
1524.20 0.47060
1524.30 0.47060
1524.40 0.47060
1524.50 0.47060
1524.60 0.47060
1524.70 0.47060
1524.80 0.47059
1524.90 0.47059
1525.00 0.47059
1525.10 0.47059
1525.20 0.47059
1525.30 0.47059
1525.40 0.47059
1525.50 0.47058
1525.60 0.47058
1525.70 0.47058
1525.80 0.47058
1525.90 0.47057
1526.00 0.47057
1526.10 0.47057
1526.20 0.47056
1526.30 0.47055
1526.40 0.47054
1526.50 0.47053
1526.60 0.47051
1526.70 0.47050
1526.80 0.47049
1526.90 0.47047
1527.00 0.47046
1527.10 0.47044
1527.20 0.47043
1527.30 0.47041
1527.40 0.47040
1527.50 0.47038
1527.60 0.47036
1527.70 0.47034
1527.80 0.47033
1527.90 0.47031
1528.00 0.47029
1528.10 0.47027
1528.20 0.47025
1528.30 0.47023
1528.40 0.47021
1528.50 0.47019
1528.60 0.47016
1528.70 0.47014
1528.80 0.47012
1528.90 0.47009
1529.00 0.47007
1529.10 0.47005
1529.20 0.47002
1529.30 0.47000
1529.40 0.46997
1529.50 0.46994
1529.60 0.46992
1529.70 0.46989
1529.80 0.46986
1529.90 0.46983
1530.00 0.46980
1530.10 0.46977
1530.20 0.46974
1530.30 0.46971
1530.40 0.46968
1530.50 0.46965
1530.60 0.46962
1530.70 0.46959
1530.80 0.46956
1530.90 0.46953
1531.00 0.46950
1531.10 0.46947
1531.20 0.46944
1531.30 0.46941
1531.40 0.46938
1531.50 0.46934
1531.60 0.46931
1531.70 0.46928
1531.80 0.46925
1531.90 0.46922
1532.00 0.46918
1532.10 0.46915
1532.20 0.46912
1532.30 0.46908
1532.40 0.46905
1532.50 0.46902
1532.60 0.46898
1532.70 0.46895
1532.80 0.46891
1532.90 0.46887
1533.00 0.46884
1533.10 0.46880
1533.20 0.46877
1533.30 0.46873
1533.40 0.46869
1533.50 0.46865
1533.60 0.46862
1533.70 0.46858
1533.80 0.46854
1533.90 0.46850
1534.00 0.46846
1534.10 0.46842
1534.20 0.46838
1534.30 0.46834
1534.40 0.46830
1534.50 0.46826
1534.60 0.46822
1534.70 0.46818
1534.80 0.46814
1534.90 0.46809
1535.00 0.46805
1535.10 0.46801
1535.20 0.46797
1535.30 0.46792
1535.40 0.46788
1535.50 0.46784
1535.60 0.46780
1535.70 0.46776
1535.80 0.46772
1535.90 0.46768
1536.00 0.46763
1536.10 0.46759
1536.20 0.46755
1536.30 0.46751
1536.40 0.46747
1536.50 0.46743
1536.60 0.46738
1536.70 0.46734
1536.80 0.46730
1536.90 0.46726
1537.00 0.46722
1537.10 0.46717
1537.20 0.46713
1537.30 0.46709
1537.40 0.46704
1537.50 0.46700
1537.60 0.46696
1537.70 0.46691
1537.80 0.46687
1537.90 0.46682
1538.00 0.46678
1538.10 0.46674
1538.20 0.46669
1538.30 0.46665
1538.40 0.46660
1538.50 0.46656
1538.60 0.46651
1538.70 0.46647
1538.80 0.46642
1538.90 0.46637
1539.00 0.46633
1539.10 0.46628
1539.20 0.46624
1539.30 0.46619
1539.40 0.46614
1539.50 0.46610
1539.60 0.46605
1539.70 0.46600
1539.80 0.46596
1539.90 0.46591
1540.00 0.46586
1540.10 0.46581
1540.20 0.46577
1540.30 0.46572
1540.40 0.46567
1540.50 0.46562
1540.60 0.46558
1540.70 0.46553
1540.80 0.46548
1540.90 0.46543
1541.00 0.46538
1541.10 0.46533
1541.20 0.46528
1541.30 0.46523
1541.40 0.46518
1541.50 0.46513
1541.60 0.46508
1541.70 0.46503
1541.80 0.46498
1541.90 0.46493
1542.00 0.46488
1542.10 0.46483
1542.20 0.46478
1542.30 0.46473
1542.40 0.46468
1542.50 0.46463
1542.60 0.46458
1542.70 0.46453
1542.80 0.46448
1542.90 0.46442
1543.00 0.46437
1543.10 0.46432
1543.20 0.46427
1543.30 0.46421
1543.40 0.46416
1543.50 0.46411
1543.60 0.46406
1543.70 0.46400
1543.80 0.46395
1543.90 0.46390
1544.00 0.46384
1544.10 0.46379
1544.20 0.46374
1544.30 0.46368
1544.40 0.46363
1544.50 0.46357
1544.60 0.46352
1544.70 0.46347
1544.80 0.46341
1544.90 0.46336
1545.00 0.46331
1545.10 0.46326
1545.20 0.46321
1545.30 0.46316
1545.40 0.46311
1545.50 0.46306
1545.60 0.46301
1545.70 0.46296
1545.80 0.46291
1545.90 0.46286
1546.00 0.46281
1546.10 0.46276
1546.20 0.46270
1546.30 0.46265
1546.40 0.46260
1546.50 0.46255
1546.60 0.46250
1546.70 0.46245
1546.80 0.46240
1546.90 0.46235
1547.00 0.46230
1547.10 0.46225
1547.20 0.46220
1547.30 0.46215
1547.40 0.46210
1547.50 0.46205
1547.60 0.46200
1547.70 0.46195
1547.80 0.46190
1547.90 0.46185
1548.00 0.46180
1548.10 0.46175
1548.20 0.46170
1548.30 0.46165
1548.40 0.46160
1548.50 0.46155
1548.60 0.46150
1548.70 0.46145
1548.80 0.46140
1548.90 0.46135
1549.00 0.46130
1549.10 0.46125
1549.20 0.46120
1549.30 0.46115
1549.40 0.46110
1549.50 0.46106
1549.60 0.46101
1549.70 0.46097
1549.80 0.46092
1549.90 0.46088
1550.00 0.46084
1550.10 0.46079
1550.20 0.46075
1550.30 0.46071
1550.40 0.46067
1550.50 0.46062
1550.60 0.46058
1550.70 0.46054
1550.80 0.46050
1550.90 0.46046
1551.00 0.46042
1551.10 0.46038
1551.20 0.46034
1551.30 0.46030
1551.40 0.46026
1551.50 0.46022
1551.60 0.46018
1551.70 0.46014
1551.80 0.46010
1551.90 0.46006
1552.00 0.46002
1552.10 0.45998
1552.20 0.45995
1552.30 0.45991
1552.40 0.45987
1552.50 0.45983
1552.60 0.45980
1552.70 0.45976
1552.80 0.45972
1552.90 0.45969
1553.00 0.45965
1553.10 0.45962
1553.20 0.45958
1553.30 0.45954
1553.40 0.45951
1553.50 0.45947
1553.60 0.45944
1553.70 0.45941
1553.80 0.45937
1553.90 0.45934
1554.00 0.45930
1554.10 0.45927
1554.20 0.45923
1554.30 0.45920
1554.40 0.45916
1554.50 0.45913
1554.60 0.45909
1554.70 0.45906
1554.80 0.45902
1554.90 0.45899
1555.00 0.45895
1555.10 0.45892
1555.20 0.45888
1555.30 0.45885
1555.40 0.45882
1555.50 0.45878
1555.60 0.45875
1555.70 0.45871
1555.80 0.45868
1555.90 0.45865
1556.00 0.45861
1556.10 0.45858
1556.20 0.45855
1556.30 0.45852
1556.40 0.45848
1556.50 0.45845
1556.60 0.45842
1556.70 0.45839
1556.80 0.45835
1556.90 0.45832
1557.00 0.45829
1557.10 0.45826
1557.20 0.45823
1557.30 0.45819
1557.40 0.45816
1557.50 0.45813
1557.60 0.45810
1557.70 0.45807
1557.80 0.45804
1557.90 0.45801
1558.00 0.45798
1558.10 0.45795
1558.20 0.45792
1558.30 0.45789
1558.40 0.45786
1558.50 0.45783
1558.60 0.45780
1558.70 0.45777
1558.80 0.45774
1558.90 0.45770
1559.00 0.45767
1559.10 0.45764
1559.20 0.45761
1559.30 0.45757
1559.40 0.45754
1559.50 0.45751
1559.60 0.45748
1559.70 0.45744
1559.80 0.45741
1559.90 0.45738
1560.00 0.45735
1560.10 0.45731
1560.20 0.45728
1560.30 0.45725
1560.40 0.45722
1560.50 0.45719
1560.60 0.45715
1560.70 0.45712
1560.80 0.45709
1560.90 0.45706
1561.00 0.45702
1561.10 0.45699
1561.20 0.45696
1561.30 0.45693
1561.40 0.45690
1561.50 0.45686
1561.60 0.45683
1561.70 0.45680
1561.80 0.45677
1561.90 0.45673
1562.00 0.45670
1562.10 0.45667
1562.20 0.45664
1562.30 0.45661
1562.40 0.45657
1562.50 0.45654
1562.60 0.45651
1562.70 0.45648
1562.80 0.45645
1562.90 0.45641
1563.00 0.45638
1563.10 0.45635
1563.20 0.45632
1563.30 0.45629
1563.40 0.45626
1563.50 0.45623
1563.60 0.45621
1563.70 0.45619
1563.80 0.45617
1563.90 0.45615
1564.00 0.45613
1564.10 0.45610
1564.20 0.45608
1564.30 0.45606
1564.40 0.45604
1564.50 0.45603
1564.60 0.45601
1564.70 0.45599
1564.80 0.45597
1564.90 0.45595
1565.00 0.45594
1565.10 0.45592
1565.20 0.45590
1565.30 0.45589
1565.40 0.45587
1565.50 0.45585
1565.60 0.45584
1565.70 0.45582
1565.80 0.45581
1565.90 0.45580
1566.00 0.45578
1566.10 0.45577
1566.20 0.45576
1566.30 0.45575
1566.40 0.45573
1566.50 0.45572
1566.60 0.45571
1566.70 0.45570
1566.80 0.45569
1566.90 0.45568
1567.00 0.45567
1567.10 0.45566
1567.20 0.45565
1567.30 0.45564
1567.40 0.45563
1567.50 0.45563
1567.60 0.45562
1567.70 0.45561
1567.80 0.45560
1567.90 0.45560
1568.00 0.45559
1568.10 0.45559
1568.20 0.45559
1568.30 0.45560
1568.40 0.45560
1568.50 0.45560
1568.60 0.45561
1568.70 0.45561
1568.80 0.45562
1568.90 0.45562
1569.00 0.45563
1569.10 0.45564
1569.20 0.45564
1569.30 0.45565
1569.40 0.45566
1569.50 0.45567
1569.60 0.45568
1569.70 0.45569
1569.80 0.45570
1569.90 0.45572
1570.00 0.45573
1570.10 0.45574
1570.20 0.45576
1570.30 0.45577
1570.40 0.45579
1570.50 0.45580
1570.60 0.45582
1570.70 0.45584
1570.80 0.45585
1570.90 0.45587
1571.00 0.45589
1571.10 0.45591
1571.20 0.45593
1571.30 0.45595
1571.40 0.45597
1571.50 0.45600
1571.60 0.45602
1571.70 0.45604
1571.80 0.45607
1571.90 0.45609
1572.00 0.45612
1572.10 0.45614
1572.20 0.45617
1572.30 0.45620
1572.40 0.45623
1572.50 0.45626
1572.60 0.45628
1572.70 0.45631
1572.80 0.45633
1572.90 0.45635
1573.00 0.45637
1573.10 0.45639
1573.20 0.45641
1573.30 0.45643
1573.40 0.45645
1573.50 0.45647
1573.60 0.45649
1573.70 0.45651
1573.80 0.45653
1573.90 0.45655
1574.00 0.45657
1574.10 0.45659
1574.20 0.45662
1574.30 0.45664
1574.40 0.45666
1574.50 0.45668
1574.60 0.45670
1574.70 0.45673
1574.80 0.45675
1574.90 0.45677
1575.00 0.45679
1575.10 0.45682
1575.20 0.45684
1575.30 0.45686
1575.40 0.45689
1575.50 0.45691
1575.60 0.45694
1575.70 0.45696
1575.80 0.45698
1575.90 0.45701
1576.00 0.45703
1576.10 0.45706
1576.20 0.45708
1576.30 0.45711
1576.40 0.45713
1576.50 0.45716
1576.60 0.45718
1576.70 0.45721
1576.80 0.45723
1576.90 0.45726
1577.00 0.45729
1577.10 0.45731
1577.20 0.45734
1577.30 0.45737
1577.40 0.45738
1577.50 0.45739
1577.60 0.45741
1577.70 0.45742
1577.80 0.45743
1577.90 0.45745
1578.00 0.45746
1578.10 0.45747
1578.20 0.45748
1578.30 0.45749
1578.40 0.45750
1578.50 0.45751
1578.60 0.45752
1578.70 0.45753
1578.80 0.45754
1578.90 0.45755
1579.00 0.45755
1579.10 0.45756
1579.20 0.45757
1579.30 0.45758
1579.40 0.45758
1579.50 0.45759
1579.60 0.45759
1579.70 0.45760
1579.80 0.45760
1579.90 0.45761
1580.00 0.45761
1580.10 0.45762
1580.20 0.45762
1580.30 0.45762
1580.40 0.45763
1580.50 0.45763
1580.60 0.45763
1580.70 0.45763
1580.80 0.45763
1580.90 0.45764
1581.00 0.45764
1581.10 0.45764
1581.20 0.45764
1581.30 0.45764
1581.40 0.45763
1581.50 0.45763
1581.60 0.45763
1581.70 0.45763
1581.80 0.45763
1581.90 0.45762
1582.00 0.45762
1582.10 0.45761
1582.20 0.45759
1582.30 0.45758
1582.40 0.45757
1582.50 0.45755
1582.60 0.45754
1582.70 0.45752
1582.80 0.45751
1582.90 0.45749
1583.00 0.45747
1583.10 0.45746
1583.20 0.45744
1583.30 0.45742
1583.40 0.45740
1583.50 0.45738
1583.60 0.45735
1583.70 0.45733
1583.80 0.45731
1583.90 0.45729
1584.00 0.45726
1584.10 0.45724
1584.20 0.45721
1584.30 0.45719
1584.40 0.45716
1584.50 0.45713
1584.60 0.45710
1584.70 0.45707
1584.80 0.45704
1584.90 0.45701
1585.00 0.45698
1585.10 0.45695
1585.20 0.45692
1585.30 0.45688
1585.40 0.45685
1585.50 0.45682
1585.60 0.45678
1585.70 0.45675
1585.80 0.45671
1585.90 0.45667
1586.00 0.45663
1586.10 0.45660
1586.20 0.45656
1586.30 0.45652
1586.40 0.45648
1586.50 0.45643
1586.60 0.45639
1586.70 0.45635
1586.80 0.45631
1586.90 0.45627
1587.00 0.45623
1587.10 0.45619
1587.20 0.45615
1587.30 0.45611
1587.40 0.45607
1587.50 0.45603
1587.60 0.45598
1587.70 0.45594
1587.80 0.45590
1587.90 0.45585
1588.00 0.45581
1588.10 0.45576
1588.20 0.45572
1588.30 0.45567
1588.40 0.45562
1588.50 0.45557
1588.60 0.45553
1588.70 0.45548
1588.80 0.45543
1588.90 0.45538
1589.00 0.45533
1589.10 0.45528
1589.20 0.45523
1589.30 0.45518
1589.40 0.45512
1589.50 0.45507
1589.60 0.45502
1589.70 0.45496
1589.80 0.45491
1589.90 0.45486
1590.00 0.45480
1590.10 0.45474
1590.20 0.45469
1590.30 0.45463
1590.40 0.45458
1590.50 0.45452
1590.60 0.45446
1590.70 0.45440
1590.80 0.45434
1590.90 0.45428
1591.00 0.45422
1591.10 0.45416
1591.20 0.45410
1591.30 0.45404
1591.40 0.45399
1591.50 0.45394
1591.60 0.45388
1591.70 0.45383
1591.80 0.45377
1591.90 0.45372
1592.00 0.45367
1592.10 0.45361
1592.20 0.45356
1592.30 0.45350
1592.40 0.45345
1592.50 0.45339
1592.60 0.45334
1592.70 0.45328
1592.80 0.45323
1592.90 0.45317
1593.00 0.45311
1593.10 0.45306
1593.20 0.45300
1593.30 0.45295
1593.40 0.45289
1593.50 0.45283
1593.60 0.45278
1593.70 0.45272
1593.80 0.45266
1593.90 0.45261
1594.00 0.45255
1594.10 0.45249
1594.20 0.45243
1594.30 0.45238
1594.40 0.45232
1594.50 0.45226
1594.60 0.45220
1594.70 0.45214
1594.80 0.45209
1594.90 0.45203
1595.00 0.45197
1595.10 0.45191
1595.20 0.45185
1595.30 0.45179
1595.40 0.45173
1595.50 0.45167
1595.60 0.45161
1595.70 0.45155
1595.80 0.45149
1595.90 0.45143
1596.00 0.45138
1596.10 0.45132
1596.20 0.45127
1596.30 0.45121
1596.40 0.45116
1596.50 0.45110
1596.60 0.45105
1596.70 0.45099
1596.80 0.45094
1596.90 0.45088
1597.00 0.45083
1597.10 0.45077
1597.20 0.45072
1597.30 0.45066
1597.40 0.45061
1597.50 0.45055
1597.60 0.45050
1597.70 0.45044
1597.80 0.45039
1597.90 0.45033
1598.00 0.45028
1598.10 0.45022
1598.20 0.45017
1598.30 0.45012
1598.40 0.45006
1598.50 0.45001
1598.60 0.44995
1598.70 0.44990
1598.80 0.44984
1598.90 0.44979
1599.00 0.44974
1599.10 0.44968
1599.20 0.44963
1599.30 0.44957
1599.40 0.44952
1599.50 0.44947
1599.60 0.44941
1599.70 0.44936
1599.80 0.44931
1599.90 0.44925
1600.00 0.44920
1600.10 0.44915
1600.20 0.44909
1600.30 0.44904
1600.40 0.44899
1600.50 0.44893
1600.60 0.44888
1600.70 0.44884
1600.80 0.44879
1600.90 0.44875
1601.00 0.44870
1601.10 0.44866
1601.20 0.44861
1601.30 0.44857
1601.40 0.44852
1601.50 0.44848
1601.60 0.44844
1601.70 0.44840
1601.80 0.44835
1601.90 0.44831
1602.00 0.44827
1602.10 0.44823
1602.20 0.44819
1602.30 0.44815
1602.40 0.44811
1602.50 0.44807
1602.60 0.44803
1602.70 0.44799
1602.80 0.44795
1602.90 0.44792
1603.00 0.44788
1603.10 0.44784
1603.20 0.44780
1603.30 0.44777
1603.40 0.44773
1603.50 0.44769
1603.60 0.44766
1603.70 0.44762
1603.80 0.44759
1603.90 0.44755
1604.00 0.44752
1604.10 0.44748
1604.20 0.44745
1604.30 0.44742
1604.40 0.44738
1604.50 0.44735
1604.60 0.44732
1604.70 0.44729
1604.80 0.44726
1604.90 0.44722
1605.00 0.44719
1605.10 0.44716
1605.20 0.44713
1605.30 0.44710
1605.40 0.44707
1605.50 0.44704
1605.60 0.44701
1605.70 0.44697
1605.80 0.44694
1605.90 0.44691
1606.00 0.44688
1606.10 0.44685
1606.20 0.44682
1606.30 0.44679
1606.40 0.44676
1606.50 0.44673
1606.60 0.44670
1606.70 0.44668
1606.80 0.44665
1606.90 0.44662
1607.00 0.44659
1607.10 0.44656
1607.20 0.44654
1607.30 0.44651
1607.40 0.44648
1607.50 0.44645
1607.60 0.44643
1607.70 0.44640
1607.80 0.44638
1607.90 0.44635
1608.00 0.44632
1608.10 0.44630
1608.20 0.44627
1608.30 0.44625
1608.40 0.44622
1608.50 0.44620
1608.60 0.44618
1608.70 0.44615
1608.80 0.44613
1608.90 0.44611
1609.00 0.44608
1609.10 0.44606
1609.20 0.44604
1609.30 0.44602
1609.40 0.44599
1609.50 0.44597
1609.60 0.44595
1609.70 0.44593
1609.80 0.44591
1609.90 0.44588
1610.00 0.44584
1610.10 0.44581
1610.20 0.44577
1610.30 0.44573
1610.40 0.44570
1610.50 0.44566
1610.60 0.44562
1610.70 0.44558
1610.80 0.44554
1610.90 0.44550
1611.00 0.44546
1611.10 0.44542
1611.20 0.44538
1611.30 0.44534
1611.40 0.44530
1611.50 0.44526
1611.60 0.44522
1611.70 0.44518
1611.80 0.44513
1611.90 0.44509
1612.00 0.44505
1612.10 0.44500
1612.20 0.44496
1612.30 0.44492
1612.40 0.44487
1612.50 0.44482
1612.60 0.44478
1612.70 0.44473
1612.80 0.44469
1612.90 0.44464
1613.00 0.44459
1613.10 0.44455
1613.20 0.44450
1613.30 0.44445
1613.40 0.44440
1613.50 0.44435
1613.60 0.44430
1613.70 0.44425
1613.80 0.44420
1613.90 0.44415
1614.00 0.44410
1614.10 0.44405
1614.20 0.44400
1614.30 0.44395
1614.40 0.44389
1614.50 0.44384
1614.60 0.44378
1614.70 0.44372
1614.80 0.44366
1614.90 0.44360
1615.00 0.44354
1615.10 0.44347
1615.20 0.44341
1615.30 0.44335
1615.40 0.44328
1615.50 0.44322
1615.60 0.44315
1615.70 0.44308
1615.80 0.44302
1615.90 0.44295
1616.00 0.44288
1616.10 0.44281
1616.20 0.44274
1616.30 0.44267
1616.40 0.44260
1616.50 0.44253
1616.60 0.44245
1616.70 0.44238
1616.80 0.44231
1616.90 0.44223
1617.00 0.44216
1617.10 0.44208
1617.20 0.44201
1617.30 0.44193
1617.40 0.44185
1617.50 0.44177
1617.60 0.44169
1617.70 0.44162
1617.80 0.44154
1617.90 0.44145
1618.00 0.44137
1618.10 0.44129
1618.20 0.44121
1618.30 0.44113
1618.40 0.44104
1618.50 0.44096
1618.60 0.44087
1618.70 0.44079
1618.80 0.44070
1618.90 0.44061
1619.00 0.44052
1619.10 0.44044
1619.20 0.44035
1619.30 0.44026
1619.40 0.44017
1619.50 0.44008
1619.60 0.44000
1619.70 0.43991
1619.80 0.43982
1619.90 0.43972
1620.00 0.43963
1620.10 0.43954
1620.20 0.43945
1620.30 0.43936
1620.40 0.43926
1620.50 0.43917
1620.60 0.43908
1620.70 0.43898
1620.80 0.43889
1620.90 0.43879
1621.00 0.43869
1621.10 0.43860
1621.20 0.43850
1621.30 0.43840
1621.40 0.43830
1621.50 0.43820
1621.60 0.43810
1621.70 0.43800
1621.80 0.43790
1621.90 0.43780
1622.00 0.43770
1622.10 0.43759
1622.20 0.43749
1622.30 0.43739
1622.40 0.43728
1622.50 0.43718
1622.60 0.43707
1622.70 0.43697
1622.80 0.43686
1622.90 0.43676
1623.00 0.43665
1623.10 0.43654
1623.20 0.43643
1623.30 0.43632
1623.40 0.43621
1623.50 0.43610
1623.60 0.43599
1623.70 0.43588
1623.80 0.43577
1623.90 0.43567
1624.00 0.43557
1624.10 0.43547
1624.20 0.43537
1624.30 0.43528
1624.40 0.43518
1624.50 0.43508
1624.60 0.43498
1624.70 0.43488
1624.80 0.43478
1624.90 0.43468
1625.00 0.43459
1625.10 0.43449
1625.20 0.43439
1625.30 0.43429
1625.40 0.43419
1625.50 0.43409
1625.60 0.43400
1625.70 0.43390
1625.80 0.43380
1625.90 0.43370
1626.00 0.43360
1626.10 0.43350
1626.20 0.43341
1626.30 0.43331
1626.40 0.43321
1626.50 0.43311
1626.60 0.43301
1626.70 0.43292
1626.80 0.43282
1626.90 0.43272
1627.00 0.43262
1627.10 0.43252
1627.20 0.43243
1627.30 0.43233
1627.40 0.43223
1627.50 0.43213
1627.60 0.43203
1627.70 0.43194
1627.80 0.43184
1627.90 0.43174
1628.00 0.43164
1628.10 0.43155
1628.20 0.43145
1628.30 0.43135
1628.40 0.43125
1628.50 0.43116
1628.60 0.43107
1628.70 0.43098
1628.80 0.43089
1628.90 0.43080
1629.00 0.43072
1629.10 0.43063
1629.20 0.43054
1629.30 0.43045
1629.40 0.43037
1629.50 0.43028
1629.60 0.43020
1629.70 0.43011
1629.80 0.43003
1629.90 0.42994
1630.00 0.42986
1630.10 0.42977
1630.20 0.42969
1630.30 0.42961
1630.40 0.42952
1630.50 0.42944
1630.60 0.42936
1630.70 0.42928
1630.80 0.42920
1630.90 0.42912
1631.00 0.42904
1631.10 0.42896
1631.20 0.42888
1631.30 0.42880
1631.40 0.42872
1631.50 0.42864
1631.60 0.42856
1631.70 0.42848
1631.80 0.42840
1631.90 0.42833
1632.00 0.42825
1632.10 0.42817
1632.20 0.42810
1632.30 0.42802
1632.40 0.42795
1632.50 0.42787
1632.60 0.42780
1632.70 0.42772
1632.80 0.42765
1632.90 0.42758
1633.00 0.42750
1633.10 0.42743
1633.20 0.42735
1633.30 0.42728
1633.40 0.42721
1633.50 0.42713
1633.60 0.42706
1633.70 0.42699
1633.80 0.42691
1633.90 0.42684
1634.00 0.42677
1634.10 0.42669
1634.20 0.42662
1634.30 0.42655
1634.40 0.42648
1634.50 0.42641
1634.60 0.42634
1634.70 0.42627
1634.80 0.42620
1634.90 0.42613
1635.00 0.42606
1635.10 0.42599
1635.20 0.42592
1635.30 0.42585
1635.40 0.42578
1635.50 0.42571
1635.60 0.42564
1635.70 0.42558
1635.80 0.42551
1635.90 0.42544
1636.00 0.42537
1636.10 0.42531
1636.20 0.42524
1636.30 0.42517
1636.40 0.42511
1636.50 0.42504
1636.60 0.42498
1636.70 0.42491
1636.80 0.42485
1636.90 0.42478
1637.00 0.42472
1637.10 0.42465
1637.20 0.42459
1637.30 0.42453
1637.40 0.42446
1637.50 0.42440
1637.60 0.42434
1637.70 0.42427
1637.80 0.42421
1637.90 0.42415
1638.00 0.42408
1638.10 0.42402
1638.20 0.42396
1638.30 0.42389
1638.40 0.42383
1638.50 0.42377
1638.60 0.42371
1638.70 0.42364
1638.80 0.42358
1638.90 0.42352
1639.00 0.42346
1639.10 0.42340
1639.20 0.42334
1639.30 0.42327
1639.40 0.42321
1639.50 0.42315
1639.60 0.42309
1639.70 0.42303
1639.80 0.42297
1639.90 0.42291
1640.00 0.42285
1640.10 0.42279
1640.20 0.42273
1640.30 0.42267
1640.40 0.42262
1640.50 0.42256
1640.60 0.42250
1640.70 0.42244
1640.80 0.42238
1640.90 0.42232
1641.00 0.42227
1641.10 0.42221
1641.20 0.42215
1641.30 0.42209
1641.40 0.42204
1641.50 0.42198
1641.60 0.42192
1641.70 0.42187
1641.80 0.42181
1641.90 0.42175
1642.00 0.42170
1642.10 0.42164
1642.20 0.42159
1642.30 0.42153
1642.40 0.42148
1642.50 0.42142
1642.60 0.42137
1642.70 0.42132
1642.80 0.42127
1642.90 0.42122
1643.00 0.42117
1643.10 0.42111
1643.20 0.42106
1643.30 0.42101
1643.40 0.42096
1643.50 0.42091
1643.60 0.42086
1643.70 0.42081
1643.80 0.42077
1643.90 0.42072
1644.00 0.42067
1644.10 0.42062
1644.20 0.42057
1644.30 0.42053
1644.40 0.42048
1644.50 0.42043
1644.60 0.42038
1644.70 0.42034
1644.80 0.42029
1644.90 0.42025
1645.00 0.42020
1645.10 0.42016
1645.20 0.42011
1645.30 0.42007
1645.40 0.42002
1645.50 0.41998
1645.60 0.41993
1645.70 0.41989
1645.80 0.41985
1645.90 0.41980
1646.00 0.41976
1646.10 0.41972
1646.20 0.41968
1646.30 0.41964
1646.40 0.41959
1646.50 0.41955
1646.60 0.41951
1646.70 0.41947
1646.80 0.41943
1646.90 0.41939
1647.00 0.41935
1647.10 0.41929
1647.20 0.41922
1647.30 0.41914
1647.40 0.41907
1647.50 0.41899
1647.60 0.41891
1647.70 0.41883
1647.80 0.41875
1647.90 0.41866
1648.00 0.41858
1648.10 0.41849
1648.20 0.41841
1648.30 0.41832
1648.40 0.41823
1648.50 0.41814
1648.60 0.41805
1648.70 0.41796
1648.80 0.41787
1648.90 0.41777
1649.00 0.41767
1649.10 0.41758
1649.20 0.41748
1649.30 0.41738
1649.40 0.41728
1649.50 0.41718
1649.60 0.41708
1649.70 0.41697
1649.80 0.41687
1649.90 0.41676
1650.00 0.41665
1650.10 0.41654
1650.20 0.41643
1650.30 0.41632
1650.40 0.41621
1650.50 0.41610
1650.60 0.41598
1650.70 0.41587
1650.80 0.41575
1650.90 0.41563
1651.00 0.41551
1651.10 0.41539
1651.20 0.41527
1651.30 0.41515
1651.40 0.41502
1651.50 0.41490
1651.60 0.41477
1651.70 0.41465
1651.80 0.41447
1651.90 0.41428
1652.00 0.41410
1652.10 0.41391
1652.20 0.41371
1652.30 0.41352
1652.40 0.41332
1652.50 0.41311
1652.60 0.41291
1652.70 0.41270
1652.80 0.41248
1652.90 0.41227
1653.00 0.41205
1653.10 0.41182
1653.20 0.41160
1653.30 0.41137
1653.40 0.41114
1653.50 0.41090
1653.60 0.41066
1653.70 0.41042
1653.80 0.41017
1653.90 0.40992
1654.00 0.40967
1654.10 0.40941
1654.20 0.40915
1654.30 0.40889
1654.40 0.40862
1654.50 0.40835
1654.60 0.40808
1654.70 0.40780
1654.80 0.40753
1654.90 0.40724
1655.00 0.40696
1655.10 0.40667
1655.20 0.40637
1655.30 0.40608
1655.40 0.40578
1655.50 0.40548
1655.60 0.40517
1655.70 0.40486
1655.80 0.40455
1655.90 0.40423
1656.00 0.40392
1656.10 0.40359
1656.20 0.40327
1656.30 0.40294
1656.40 0.40258
1656.50 0.40219
1656.60 0.40180
1656.70 0.40140
1656.80 0.40100
1656.90 0.40059
1657.00 0.40018
1657.10 0.39976
1657.20 0.39933
1657.30 0.39890
1657.40 0.39847
1657.50 0.39803
1657.60 0.39758
1657.70 0.39713
1657.80 0.39667
1657.90 0.39621
1658.00 0.39574
1658.10 0.39527
1658.20 0.39479
1658.30 0.39430
1658.40 0.39382
1658.50 0.39332
1658.60 0.39282
1658.70 0.39231
1658.80 0.39180
1658.90 0.39129
1659.00 0.39076
1659.10 0.39024
1659.20 0.38970
1659.30 0.38917
1659.40 0.38862
1659.50 0.38807
1659.60 0.38752
1659.70 0.38696
1659.80 0.38639
1659.90 0.38582
1660.00 0.38525
1660.10 0.38467
1660.20 0.38408
1660.30 0.38349
1660.40 0.38289
1660.50 0.38229
1660.60 0.38168
1660.70 0.38107
1660.80 0.38045
1660.90 0.37982
1661.00 0.37919
1661.10 0.37855
1661.20 0.37791
1661.30 0.37725
1661.40 0.37659
1661.50 0.37593
1661.60 0.37526
1661.70 0.37458
1661.80 0.37390
1661.90 0.37321
1662.00 0.37252
1662.10 0.37182
1662.20 0.37112
1662.30 0.37041
1662.40 0.36969
1662.50 0.36897
1662.60 0.36824
1662.70 0.36751
1662.80 0.36677
1662.90 0.36603
1663.00 0.36528
1663.10 0.36452
1663.20 0.36376
1663.30 0.36300
1663.40 0.36222
1663.50 0.36145
1663.60 0.36066
1663.70 0.35987
1663.80 0.35908
1663.90 0.35828
1664.00 0.35747
1664.10 0.35666
1664.20 0.35584
1664.30 0.35502
1664.40 0.35419
1664.50 0.35336
1664.60 0.35252
1664.70 0.35167
1664.80 0.35082
1664.90 0.34997
1665.00 0.34910
1665.10 0.34823
1665.20 0.34736
1665.30 0.34648
1665.40 0.34560
1665.50 0.34471
1665.60 0.34381
1665.70 0.34292
1665.80 0.34204
1665.90 0.34115
1666.00 0.34026
1666.10 0.33937
1666.20 0.33847
1666.30 0.33756
1666.40 0.33665
1666.50 0.33574
1666.60 0.33482
1666.70 0.33390
1666.80 0.33297
1666.90 0.33204
1667.00 0.33110
1667.10 0.33016
1667.20 0.32922
1667.30 0.32827
1667.40 0.32731
1667.50 0.32636
1667.60 0.32539
1667.70 0.32442
1667.80 0.32345
1667.90 0.32247
1668.00 0.32149
1668.10 0.32050
1668.20 0.31951
1668.30 0.31852
1668.40 0.31752
1668.50 0.31651
1668.60 0.31550
1668.70 0.31449
1668.80 0.31347
1668.90 0.31245
1669.00 0.31142
1669.10 0.31039
1669.20 0.30936
1669.30 0.30831
1669.40 0.30727
1669.50 0.30622
1669.60 0.30516
1669.70 0.30411
1669.80 0.30304
1669.90 0.30197
1670.00 0.30090
1670.10 0.29982
1670.20 0.29874
1670.30 0.29766
1670.40 0.29662
1670.50 0.29557
1670.60 0.29453
1670.70 0.29348
1670.80 0.29243
1670.90 0.29137
1671.00 0.29032
1671.10 0.28926
1671.20 0.28820
1671.30 0.28714
1671.40 0.28607
1671.50 0.28500
1671.60 0.28393
1671.70 0.28286
1671.80 0.28178
1671.90 0.28071
1672.00 0.27963
1672.10 0.27854
1672.20 0.27746
1672.30 0.27637
1672.40 0.27528
1672.50 0.27419
1672.60 0.27309
1672.70 0.27200
1672.80 0.27090
1672.90 0.26980
1673.00 0.26869
1673.10 0.26758
1673.20 0.26648
1673.30 0.26536
1673.40 0.26425
1673.50 0.26313
1673.60 0.26201
1673.70 0.26089
1673.80 0.25977
1673.90 0.25864
1674.00 0.25751
1674.10 0.25638
1674.20 0.25525
1674.30 0.25411
1674.40 0.25297
1674.50 0.25183
1674.60 0.25069
1674.70 0.24954
1674.80 0.24840
1674.90 0.24725
1675.00 0.24612
1675.10 0.24502
1675.20 0.24393
1675.30 0.24283
1675.40 0.24173
1675.50 0.24064
1675.60 0.23954
1675.70 0.23844
1675.80 0.23734
1675.90 0.23625
1676.00 0.23515
1676.10 0.23405
1676.20 0.23295
1676.30 0.23186
1676.40 0.23076
1676.50 0.22966
1676.60 0.22857
1676.70 0.22747
1676.80 0.22637
1676.90 0.22527
1677.00 0.22418
1677.10 0.22308
1677.20 0.22198
1677.30 0.22088
1677.40 0.21979
1677.50 0.21869
1677.60 0.21759
1677.70 0.21649
1677.80 0.21540
1677.90 0.21430
1678.00 0.21320
1678.10 0.21210
1678.20 0.21100
1678.30 0.20991
1678.40 0.20881
1678.50 0.20771
1678.60 0.20661
1678.70 0.20552
1678.80 0.20442
1678.90 0.20332
1679.00 0.20222
1679.10 0.20112
1679.20 0.20003
1679.30 0.19893
1679.40 0.19783
1679.50 0.19673
1679.60 0.19563
1679.70 0.19460
1679.80 0.19358
1679.90 0.19255
1680.00 0.19153
1680.10 0.19052
1680.20 0.18950
1680.30 0.18849
1680.40 0.18748
1680.50 0.18647
1680.60 0.18547
1680.70 0.18447
1680.80 0.18347
1680.90 0.18248
1681.00 0.18149
1681.10 0.18050
1681.20 0.17951
1681.30 0.17853
1681.40 0.17755
1681.50 0.17657
1681.60 0.17559
1681.70 0.17462
1681.80 0.17365
1681.90 0.17269
1682.00 0.17172
1682.10 0.17076
1682.20 0.16980
1682.30 0.16885
1682.40 0.16790
1682.50 0.16695
1682.60 0.16600
1682.70 0.16506
1682.80 0.16412
1682.90 0.16318
1683.00 0.16225
1683.10 0.16131
1683.20 0.16038
1683.30 0.15946
1683.40 0.15853
1683.50 0.15761
1683.60 0.15670
1683.70 0.15578
1683.80 0.15487
1683.90 0.15396
1684.00 0.15305
1684.10 0.15215
1684.20 0.15125
1684.30 0.15037
1684.40 0.14952
1684.50 0.14868
1684.60 0.14784
1684.70 0.14701
1684.80 0.14618
1684.90 0.14535
1685.00 0.14453
1685.10 0.14372
1685.20 0.14290
1685.30 0.14210
1685.40 0.14130
1685.50 0.14050
1685.60 0.13971
1685.70 0.13892
1685.80 0.13814
1685.90 0.13736
1686.00 0.13659
1686.10 0.13582
1686.20 0.13506
1686.30 0.13430
1686.40 0.13354
1686.50 0.13279
1686.60 0.13205
1686.70 0.13131
1686.80 0.13057
1686.90 0.12984
1687.00 0.12912
1687.10 0.12839
1687.20 0.12768
1687.30 0.12697
1687.40 0.12626
1687.50 0.12556
1687.60 0.12486
1687.70 0.12417
1687.80 0.12348
1687.90 0.12280
1688.00 0.12212
1688.10 0.12144
1688.20 0.12077
1688.30 0.12011
1688.40 0.11945
1688.50 0.11879
1688.60 0.11814
1688.70 0.11750
1688.80 0.11686
1688.90 0.11622
1689.00 0.11559
1689.10 0.11496
1689.20 0.11434
1689.30 0.11372
1689.40 0.11310
1689.50 0.11249
1689.60 0.11189
1689.70 0.11129
1689.80 0.11069
1689.90 0.11010
1690.00 0.10951
1690.10 0.10893
1690.20 0.10836
1690.30 0.10778
1690.40 0.10722
1690.50 0.10665
1690.60 0.10609
1690.70 0.10554
1690.80 0.10499
1690.90 0.10445
1691.00 0.10391
1691.10 0.10337
1691.20 0.10284
1691.30 0.10231
1691.40 0.10179
1691.50 0.10127
1691.60 0.10076
1691.70 0.10025
1691.80 0.09975
1691.90 0.09925
1692.00 0.09876
1692.10 0.09827
1692.20 0.09779
1692.30 0.09731
1692.40 0.09683
1692.50 0.09636
1692.60 0.09589
1692.70 0.09543
1692.80 0.09498
1692.90 0.09452
1693.00 0.09408
1693.10 0.09363
1693.20 0.09319
1693.30 0.09276
1693.40 0.09233
1693.50 0.09191
1693.60 0.09147
1693.70 0.09101
1693.80 0.09055
1693.90 0.09010
1694.00 0.08965
1694.10 0.08920
1694.20 0.08876
1694.30 0.08832
1694.40 0.08788
1694.50 0.08745
1694.60 0.08701
1694.70 0.08658
1694.80 0.08616
1694.90 0.08573
1695.00 0.08531
1695.10 0.08489
1695.20 0.08448
1695.30 0.08406
1695.40 0.08365
1695.50 0.08325
1695.60 0.08284
1695.70 0.08244
1695.80 0.08204
1695.90 0.08165
1696.00 0.08125
1696.10 0.08086
1696.20 0.08048
1696.30 0.08009
1696.40 0.07971
1696.50 0.07933
1696.60 0.07896
1696.70 0.07858
1696.80 0.07821
1696.90 0.07784
1697.00 0.07748
1697.10 0.07712
1697.20 0.07676
1697.30 0.07640
1697.40 0.07605
1697.50 0.07570
1697.60 0.07535
1697.70 0.07501
1697.80 0.07467
1697.90 0.07433
1698.00 0.07399
1698.10 0.07366
1698.20 0.07333
1698.30 0.07297
1698.40 0.07262
1698.50 0.07227
1698.60 0.07192
1698.70 0.07157
1698.80 0.07123
1698.90 0.07089
1699.00 0.07054
1699.10 0.07021
1699.20 0.06987
1699.30 0.06953
1699.40 0.06920
1699.50 0.06886
1699.60 0.06853
1699.70 0.06820
1699.80 0.06788
1699.90 0.06755
1700.00 0.06723
1700.10 0.06690
1700.20 0.06658
1700.30 0.06626
1700.40 0.06595
1700.50 0.06563
1700.60 0.06532
1700.70 0.06500
1700.80 0.06469
1700.90 0.06439
1701.00 0.06408
1701.10 0.06377
1701.20 0.06347
1701.30 0.06317
1701.40 0.06287
1701.50 0.06257
1701.60 0.06227
1701.70 0.06198
1701.80 0.06169
1701.90 0.06140
1702.00 0.06111
1702.10 0.06082
1702.20 0.06053
1702.30 0.06025
1702.40 0.05997
1702.50 0.05968
1702.60 0.05941
1702.70 0.05913
1702.80 0.05885
1702.90 0.05857
1703.00 0.05829
1703.10 0.05801
1703.20 0.05773
1703.30 0.05745
1703.40 0.05718
1703.50 0.05690
1703.60 0.05663
1703.70 0.05636
1703.80 0.05608
1703.90 0.05581
1704.00 0.05555
1704.10 0.05528
1704.20 0.05501
1704.30 0.05475
1704.40 0.05448
1704.50 0.05422
1704.60 0.05396
1704.70 0.05370
1704.80 0.05344
1704.90 0.05319
1705.00 0.05293
1705.10 0.05268
1705.20 0.05243
1705.30 0.05217
1705.40 0.05192
1705.50 0.05167
1705.60 0.05143
1705.70 0.05118
1705.80 0.05094
1705.90 0.05069
1706.00 0.05045
1706.10 0.05021
1706.20 0.04997
1706.30 0.04973
1706.40 0.04950
1706.50 0.04926
1706.60 0.04903
1706.70 0.04879
1706.80 0.04856
1706.90 0.04833
1707.00 0.04810
1707.10 0.04787
1707.20 0.04765
1707.30 0.04742
1707.40 0.04720
1707.50 0.04698
1707.60 0.04676
1707.70 0.04654
1707.80 0.04632
1707.90 0.04611
1708.00 0.04589
1708.10 0.04568
1708.20 0.04547
1708.30 0.04526
1708.40 0.04505
1708.50 0.04484
1708.60 0.04463
1708.70 0.04443
1708.80 0.04423
1708.90 0.04402
1709.00 0.04382
1709.10 0.04362
1709.20 0.04342
1709.30 0.04323
1709.40 0.04303
1709.50 0.04284
1709.60 0.04265
1709.70 0.04246
1709.80 0.04227
1709.90 0.04208
1710.00 0.04189
1710.10 0.04170
1710.20 0.04152
1710.30 0.04134
1710.40 0.04115
1710.50 0.04097
1710.60 0.04080
1710.70 0.04062
1710.80 0.04044
1710.90 0.04027
1711.00 0.04009
1711.10 0.03992
1711.20 0.03975
1711.30 0.03958
1711.40 0.03941
1711.50 0.03925
1711.60 0.03908
1711.70 0.03892
1711.80 0.03875
1711.90 0.03859
1712.00 0.03843
1712.10 0.03827
1712.20 0.03811
1712.30 0.03793
1712.40 0.03776
1712.50 0.03758
1712.60 0.03741
1712.70 0.03724
1712.80 0.03707
1712.90 0.03690
1713.00 0.03672
1713.10 0.03655
1713.20 0.03638
1713.30 0.03622
1713.40 0.03605
1713.50 0.03588
1713.60 0.03571
1713.70 0.03554
1713.80 0.03538
1713.90 0.03521
1714.00 0.03505
1714.10 0.03488
1714.20 0.03472
1714.30 0.03455
1714.40 0.03439
1714.50 0.03423
1714.60 0.03407
1714.70 0.03391
1714.80 0.03375
1714.90 0.03359
1715.00 0.03343
1715.10 0.03327
1715.20 0.03311
1715.30 0.03295
1715.40 0.03280
1715.50 0.03264
1715.60 0.03248
1715.70 0.03233
1715.80 0.03217
1715.90 0.03202
1716.00 0.03186
1716.10 0.03171
1716.20 0.03156
1716.30 0.03141
1716.40 0.03126
1716.50 0.03110
1716.60 0.03095
1716.70 0.03080
1716.80 0.03066
1716.90 0.03050
1717.00 0.03034
1717.10 0.03018
1717.20 0.03002
1717.30 0.02986
1717.40 0.02971
1717.50 0.02955
1717.60 0.02939
1717.70 0.02924
1717.80 0.02908
1717.90 0.02892
1718.00 0.02877
1718.10 0.02861
1718.20 0.02845
1718.30 0.02830
1718.40 0.02814
1718.50 0.02798
1718.60 0.02783
1718.70 0.02767
1718.80 0.02752
1718.90 0.02736
1719.00 0.02721
1719.10 0.02705
1719.20 0.02690
1719.30 0.02674
1719.40 0.02659
1719.50 0.02644
1719.60 0.02628
1719.70 0.02613
1719.80 0.02597
1719.90 0.02582
1720.00 0.02567
1720.10 0.02551
1720.20 0.02536
1720.30 0.02521
1720.40 0.02505
1720.50 0.02490
1720.60 0.02475
1720.70 0.02460
1720.80 0.02444
1720.90 0.02429
1721.00 0.02414
1721.10 0.02399
1721.20 0.02384
1721.30 0.02369
1721.40 0.02354
1721.50 0.02339
1721.60 0.02325
1721.70 0.02311
1721.80 0.02298
1721.90 0.02284
1722.00 0.02270
1722.10 0.02257
1722.20 0.02243
1722.30 0.02230
1722.40 0.02217
1722.50 0.02203
1722.60 0.02190
1722.70 0.02177
1722.80 0.02164
1722.90 0.02151
1723.00 0.02138
1723.10 0.02125
1723.20 0.02112
1723.30 0.02099
1723.40 0.02087
1723.50 0.02074
1723.60 0.02062
1723.70 0.02049
1723.80 0.02037
1723.90 0.02024
1724.00 0.02012
1724.10 0.02000
1724.20 0.01988
1724.30 0.01976
1724.40 0.01964
1724.50 0.01952
1724.60 0.01940
1724.70 0.01928
1724.80 0.01916
1724.90 0.01905
1725.00 0.01893
1725.10 0.01881
1725.20 0.01870
1725.30 0.01858
1725.40 0.01847
1725.50 0.01836
1725.60 0.01825
1725.70 0.01813
1725.80 0.01802
1725.90 0.01791
1726.00 0.01780
1726.10 0.01769
1726.20 0.01759
1726.30 0.01749
1726.40 0.01738
1726.50 0.01728
1726.60 0.01718
1726.70 0.01708
1726.80 0.01698
1726.90 0.01689
1727.00 0.01679
1727.10 0.01669
1727.20 0.01660
1727.30 0.01650
1727.40 0.01641
1727.50 0.01632
1727.60 0.01622
1727.70 0.01613
1727.80 0.01604
1727.90 0.01595
1728.00 0.01587
1728.10 0.01578
1728.20 0.01569
1728.30 0.01560
1728.40 0.01552
1728.50 0.01543
1728.60 0.01535
1728.70 0.01527
1728.80 0.01519
1728.90 0.01511
1729.00 0.01503
1729.10 0.01495
1729.20 0.01487
1729.30 0.01479
1729.40 0.01471
1729.50 0.01464
1729.60 0.01456
1729.70 0.01449
1729.80 0.01441
1729.90 0.01434
1730.00 0.01427
1730.10 0.01420
1730.20 0.01413
1730.30 0.01406
1730.40 0.01399
1730.50 0.01392
1730.60 0.01386
1730.70 0.01379
1730.80 0.01372
1730.90 0.01365
1731.00 0.01358
1731.10 0.01351
1731.20 0.01344
1731.30 0.01337
1731.40 0.01330
1731.50 0.01323
1731.60 0.01317
1731.70 0.01310
1731.80 0.01303
1731.90 0.01297
1732.00 0.01290
1732.10 0.01284
1732.20 0.01277
1732.30 0.01271
1732.40 0.01265
1732.50 0.01258
1732.60 0.01252
1732.70 0.01246
1732.80 0.01240
1732.90 0.01234
1733.00 0.01228
1733.10 0.01222
1733.20 0.01216
1733.30 0.01210
1733.40 0.01204
1733.50 0.01199
1733.60 0.01193
1733.70 0.01187
1733.80 0.01182
1733.90 0.01176
1734.00 0.01171
1734.10 0.01166
1734.20 0.01160
1734.30 0.01155
1734.40 0.01150
1734.50 0.01145
1734.60 0.01139
1734.70 0.01134
1734.80 0.01129
1734.90 0.01124
1735.00 0.01120
1735.10 0.01115
1735.20 0.01110
1735.30 0.01105
1735.40 0.01101
1735.50 0.01096
1735.60 0.01091
1735.70 0.01086
1735.80 0.01081
1735.90 0.01076
1736.00 0.01071
1736.10 0.01066
1736.20 0.01062
1736.30 0.01057
1736.40 0.01052
1736.50 0.01048
1736.60 0.01043
1736.70 0.01038
1736.80 0.01034
1736.90 0.01029
1737.00 0.01025
1737.10 0.01021
1737.20 0.01016
1737.30 0.01012
1737.40 0.01008
1737.50 0.01003
1737.60 0.00999
1737.70 0.00995
1737.80 0.00991
1737.90 0.00987
1738.00 0.00983
1738.10 0.00979
1738.20 0.00975
1738.30 0.00971
1738.40 0.00967
1738.50 0.00963
1738.60 0.00959
1738.70 0.00956
1738.80 0.00952
1738.90 0.00948
1739.00 0.00944
1739.10 0.00941
1739.20 0.00937
1739.30 0.00934
1739.40 0.00930
1739.50 0.00927
1739.60 0.00923
1739.70 0.00920
1739.80 0.00917
1739.90 0.00913
1740.00 0.00910
1740.10 0.00906
1740.20 0.00902
1740.30 0.00898
1740.40 0.00894
1740.50 0.00890
1740.60 0.00886
1740.70 0.00882
1740.80 0.00878
1740.90 0.00874
1741.00 0.00870
1741.10 0.00866
1741.20 0.00862
1741.30 0.00858
1741.40 0.00854
1741.50 0.00850
1741.60 0.00846
1741.70 0.00842
1741.80 0.00838
1741.90 0.00834
1742.00 0.00830
1742.10 0.00827
1742.20 0.00823
1742.30 0.00819
1742.40 0.00815
1742.50 0.00811
1742.60 0.00807
1742.70 0.00803
1742.80 0.00799
1742.90 0.00795
1743.00 0.00791
1743.10 0.00787
1743.20 0.00783
1743.30 0.00780
1743.40 0.00776
1743.50 0.00772
1743.60 0.00768
1743.70 0.00764
1743.80 0.00760
1743.90 0.00756
1744.00 0.00752
1744.10 0.00749
1744.20 0.00745
1744.30 0.00741
1744.40 0.00737
1744.50 0.00733
1744.60 0.00729
1744.70 0.00726
1744.80 0.00722
1744.90 0.00719
1745.00 0.00716
1745.10 0.00713
1745.20 0.00710
1745.30 0.00707
1745.40 0.00704
1745.50 0.00701
1745.60 0.00698
1745.70 0.00695
1745.80 0.00692
1745.90 0.00689
1746.00 0.00687
1746.10 0.00684
1746.20 0.00681
1746.30 0.00678
1746.40 0.00676
1746.50 0.00673
1746.60 0.00670
1746.70 0.00668
1746.80 0.00665
1746.90 0.00663
1747.00 0.00660
1747.10 0.00658
1747.20 0.00655
1747.30 0.00653
1747.40 0.00651
1747.50 0.00648
1747.60 0.00646
1747.70 0.00644
1747.80 0.00641
1747.90 0.00639
1748.00 0.00637
1748.10 0.00635
1748.20 0.00633
1748.30 0.00631
1748.40 0.00629
1748.50 0.00627
1748.60 0.00625
1748.70 0.00623
1748.80 0.00621
1748.90 0.00619
1749.00 0.00617
1749.10 0.00615
1749.20 0.00613
1749.30 0.00612
1749.40 0.00610
1749.50 0.00607
1749.60 0.00604
1749.70 0.00602
1749.80 0.00599
1749.90 0.00597
1750.00 0.00594
1750.10 0.00592
1750.20 0.00589
1750.30 0.00587
1750.40 0.00584
1750.50 0.00581
1750.60 0.00579
1750.70 0.00576
1750.80 0.00574
1750.90 0.00571
1751.00 0.00569
1751.10 0.00566
1751.20 0.00563
1751.30 0.00561
1751.40 0.00558
1751.50 0.00556
1751.60 0.00553
1751.70 0.00551
1751.80 0.00548
1751.90 0.00545
1752.00 0.00543
1752.10 0.00540
1752.20 0.00538
1752.30 0.00535
1752.40 0.00532
1752.50 0.00530
1752.60 0.00527
1752.70 0.00524
1752.80 0.00522
1752.90 0.00519
1753.00 0.00517
1753.10 0.00514
1753.20 0.00511
1753.30 0.00509
1753.40 0.00506
1753.50 0.00503
1753.60 0.00501
1753.70 0.00498
1753.80 0.00495
1753.90 0.00493
1754.00 0.00490
1754.10 0.00487
1754.20 0.00484
1754.30 0.00481
1754.40 0.00478
1754.50 0.00475
1754.60 0.00472
1754.70 0.00469
1754.80 0.00465
1754.90 0.00462
1755.00 0.00459
1755.10 0.00456
1755.20 0.00453
1755.30 0.00449
1755.40 0.00446
1755.50 0.00443
1755.60 0.00440
1755.70 0.00436
1755.80 0.00433
1755.90 0.00429
1756.00 0.00426
1756.10 0.00423
1756.20 0.00419
1756.30 0.00416
1756.40 0.00412
1756.50 0.00409
1756.60 0.00405
1756.70 0.00402
1756.80 0.00398
1756.90 0.00395
1757.00 0.00391
1757.10 0.00388
1757.20 0.00384
1757.30 0.00381
1757.40 0.00377
1757.50 0.00373
1757.60 0.00370
1757.70 0.00366
1757.80 0.00362
1757.90 0.00358
1758.00 0.00355
1758.10 0.00351
1758.20 0.00347
1758.30 0.00343
1758.40 0.00340
1758.50 0.00336
1758.60 0.00332
1758.70 0.00328
1758.80 0.00325
1758.90 0.00322
1759.00 0.00318
1759.10 0.00315
1759.20 0.00311
1759.30 0.00308
1759.40 0.00305
1759.50 0.00301
1759.60 0.00298
1759.70 0.00295
1759.80 0.00291
1759.90 0.00288
1760.00 0.00284
1760.10 0.00281
1760.20 0.00278
1760.30 0.00274
1760.40 0.00271
1760.50 0.00268
1760.60 0.00264
1760.70 0.00261
1760.80 0.00258
1760.90 0.00254
1761.00 0.00251
1761.10 0.00248
1761.20 0.00244
1761.30 0.00241
1761.40 0.00238
1761.50 0.00234
1761.60 0.00231
1761.70 0.00228
1761.80 0.00224
1761.90 0.00221
1762.00 0.00218
1762.10 0.00214
1762.20 0.00211
1762.30 0.00208
1762.40 0.00204
1762.50 0.00201
1762.60 0.00198
1762.70 0.00195
1762.80 0.00191
1762.90 0.00188
1763.00 0.00185
1763.10 0.00181
1763.20 0.00178
1763.30 0.00175
1763.40 0.00173
1763.50 0.00171
1763.60 0.00169
1763.70 0.00167
1763.80 0.00165
1763.90 0.00163
1764.00 0.00162
1764.10 0.00160
1764.20 0.00159
1764.30 0.00157
1764.40 0.00156
1764.50 0.00154
1764.60 0.00153
1764.70 0.00151
1764.80 0.00150
1764.90 0.00149
1765.00 0.00148
1765.10 0.00147
1765.20 0.00146
1765.30 0.00145
1765.40 0.00144
1765.50 0.00143
1765.60 0.00142
1765.70 0.00141
1765.80 0.00141
1765.90 0.00140
1766.00 0.00139
1766.10 0.00139
1766.20 0.00138
1766.30 0.00138
1766.40 0.00138
1766.50 0.00137
1766.60 0.00137
1766.70 0.00137
1766.80 0.00137
1766.90 0.00137
1767.00 0.00136
1767.10 0.00136
1767.20 0.00137
1767.30 0.00137
1767.40 0.00137
1767.50 0.00137
1767.60 0.00137
1767.70 0.00138
1767.80 0.00138
1767.90 0.00138
1768.00 0.00138
1768.10 0.00138
1768.20 0.00137
1768.30 0.00136
1768.40 0.00135
1768.50 0.00134
1768.60 0.00134
1768.70 0.00133
1768.80 0.00132
1768.90 0.00131
1769.00 0.00130
1769.10 0.00130
1769.20 0.00129
1769.30 0.00128
1769.40 0.00127
1769.50 0.00126
1769.60 0.00125
1769.70 0.00125
1769.80 0.00000
1769.90 0.00000
1770.00 0.00000
