# Huble Space Telescope Throughput
# By 03-28-2022
# https://www.stsci.edu/hst/instrumentation/wfc3/documentation/grism-resources/wfc3-g141-calibrations
# With modification: Throughput = sensitivity * unit('erg cm-2') * photon_energy / area
# Wavelength(nm) Throughput(0-1)
970.00 0.00009
970.10 0.00010
970.20 0.00010
970.30 0.00010
970.40 0.00010
970.50 0.00010
970.60 0.00010
970.70 0.00011
970.80 0.00011
970.90 0.00011
971.00 0.00011
971.10 0.00011
971.20 0.00012
971.30 0.00012
971.40 0.00012
971.50 0.00012
971.60 0.00012
971.70 0.00013
971.80 0.00013
971.90 0.00013
972.00 0.00013
972.10 0.00013
972.20 0.00014
972.30 0.00014
972.40 0.00014
972.50 0.00014
972.60 0.00014
972.70 0.00015
972.80 0.00015
972.90 0.00015
973.00 0.00015
973.10 0.00016
973.20 0.00016
973.30 0.00016
973.40 0.00016
973.50 0.00016
973.60 0.00017
973.70 0.00017
973.80 0.00017
973.90 0.00017
974.00 0.00018
974.10 0.00018
974.20 0.00018
974.30 0.00018
974.40 0.00019
974.50 0.00019
974.60 0.00019
974.70 0.00019
974.80 0.00019
974.90 0.00020
975.00 0.00020
975.10 0.00020
975.20 0.00020
975.30 0.00021
975.40 0.00021
975.50 0.00021
975.60 0.00021
975.70 0.00022
975.80 0.00022
975.90 0.00022
976.00 0.00022
976.10 0.00023
976.20 0.00023
976.30 0.00023
976.40 0.00023
976.50 0.00024
976.60 0.00024
976.70 0.00024
976.80 0.00024
976.90 0.00025
977.00 0.00025
977.10 0.00025
977.20 0.00025
977.30 0.00026
977.40 0.00026
977.50 0.00026
977.60 0.00026
977.70 0.00027
977.80 0.00027
977.90 0.00027
978.00 0.00027
978.10 0.00027
978.20 0.00028
978.30 0.00028
978.40 0.00028
978.50 0.00028
978.60 0.00029
978.70 0.00029
978.80 0.00029
978.90 0.00029
979.00 0.00030
979.10 0.00030
979.20 0.00030
979.30 0.00030
979.40 0.00031
979.50 0.00031
979.60 0.00031
979.70 0.00031
979.80 0.00032
979.90 0.00032
980.00 0.00032
980.10 0.00032
980.20 0.00032
980.30 0.00033
980.40 0.00033
980.50 0.00033
980.60 0.00033
980.70 0.00034
980.80 0.00034
980.90 0.00034
981.00 0.00034
981.10 0.00034
981.20 0.00035
981.30 0.00035
981.40 0.00035
981.50 0.00035
981.60 0.00035
981.70 0.00036
981.80 0.00036
981.90 0.00036
982.00 0.00036
982.10 0.00037
982.20 0.00037
982.30 0.00037
982.40 0.00037
982.50 0.00037
982.60 0.00038
982.70 0.00038
982.80 0.00038
982.90 0.00038
983.00 0.00038
983.10 0.00038
983.20 0.00039
983.30 0.00039
983.40 0.00039
983.50 0.00039
983.60 0.00039
983.70 0.00040
983.80 0.00040
983.90 0.00040
984.00 0.00040
984.10 0.00040
984.20 0.00040
984.30 0.00041
984.40 0.00041
984.50 0.00041
984.60 0.00041
984.70 0.00041
984.80 0.00041
984.90 0.00042
985.00 0.00042
985.10 0.00042
985.20 0.00042
985.30 0.00042
985.40 0.00042
985.50 0.00042
985.60 0.00043
985.70 0.00043
985.80 0.00043
985.90 0.00043
986.00 0.00043
986.10 0.00043
986.20 0.00043
986.30 0.00044
986.40 0.00044
986.50 0.00044
986.60 0.00044
986.70 0.00044
986.80 0.00044
986.90 0.00044
987.00 0.00044
987.10 0.00045
987.20 0.00045
987.30 0.00045
987.40 0.00045
987.50 0.00045
987.60 0.00045
987.70 0.00045
987.80 0.00045
987.90 0.00045
988.00 0.00045
988.10 0.00046
988.20 0.00046
988.30 0.00046
988.40 0.00046
988.50 0.00046
988.60 0.00046
988.70 0.00046
988.80 0.00046
988.90 0.00046
989.00 0.00046
989.10 0.00046
989.20 0.00046
989.30 0.00047
989.40 0.00047
989.50 0.00047
989.60 0.00047
989.70 0.00047
989.80 0.00047
989.90 0.00047
990.00 0.00047
990.10 0.00047
990.20 0.00047
990.30 0.00047
990.40 0.00047
990.50 0.00047
990.60 0.00047
990.70 0.00047
990.80 0.00047
990.90 0.00047
991.00 0.00048
991.10 0.00048
991.20 0.00048
991.30 0.00048
991.40 0.00048
991.50 0.00048
991.60 0.00048
991.70 0.00048
991.80 0.00048
991.90 0.00048
992.00 0.00048
992.10 0.00048
992.20 0.00048
992.30 0.00048
992.40 0.00048
992.50 0.00048
992.60 0.00048
992.70 0.00048
992.80 0.00048
992.90 0.00048
993.00 0.00048
993.10 0.00048
993.20 0.00048
993.30 0.00048
993.40 0.00048
993.50 0.00048
993.60 0.00048
993.70 0.00048
993.80 0.00048
993.90 0.00048
994.00 0.00048
994.10 0.00048
994.20 0.00048
994.30 0.00048
994.40 0.00048
994.50 0.00048
994.60 0.00048
994.70 0.00048
994.80 0.00048
994.90 0.00048
995.00 0.00048
995.10 0.00048
995.20 0.00048
995.30 0.00048
995.40 0.00048
995.50 0.00048
995.60 0.00048
995.70 0.00048
995.80 0.00048
995.90 0.00048
996.00 0.00048
996.10 0.00048
996.20 0.00048
996.30 0.00048
996.40 0.00048
996.50 0.00048
996.60 0.00048
996.70 0.00048
996.80 0.00048
996.90 0.00048
997.00 0.00048
997.10 0.00048
997.20 0.00048
997.30 0.00048
997.40 0.00048
997.50 0.00048
997.60 0.00048
997.70 0.00048
997.80 0.00048
997.90 0.00048
998.00 0.00048
998.10 0.00048
998.20 0.00048
998.30 0.00048
998.40 0.00048
998.50 0.00048
998.60 0.00048
998.70 0.00048
998.80 0.00048
998.90 0.00048
999.00 0.00048
999.10 0.00048
999.20 0.00048
999.30 0.00048
999.40 0.00048
999.50 0.00048
999.60 0.00048
999.70 0.00048
999.80 0.00048
999.90 0.00048
1000.00 0.00049
1000.10 0.00049
1000.20 0.00049
1000.30 0.00049
1000.40 0.00049
1000.50 0.00049
1000.60 0.00049
1000.70 0.00049
1000.80 0.00049
1000.90 0.00049
1001.00 0.00049
1001.10 0.00049
1001.20 0.00049
1001.30 0.00049
1001.40 0.00049
1001.50 0.00049
1001.60 0.00049
1001.70 0.00049
1001.80 0.00049
1001.90 0.00049
1002.00 0.00049
1002.10 0.00049
1002.20 0.00049
1002.30 0.00049
1002.40 0.00050
1002.50 0.00050
1002.60 0.00050
1002.70 0.00050
1002.80 0.00050
1002.90 0.00050
1003.00 0.00050
1003.10 0.00050
1003.20 0.00050
1003.30 0.00050
1003.40 0.00050
1003.50 0.00050
1003.60 0.00050
1003.70 0.00051
1003.80 0.00051
1003.90 0.00051
1004.00 0.00051
1004.10 0.00051
1004.20 0.00051
1004.30 0.00051
1004.40 0.00051
1004.50 0.00051
1004.60 0.00052
1004.70 0.00052
1004.80 0.00052
1004.90 0.00052
1005.00 0.00052
1005.10 0.00052
1005.20 0.00052
1005.30 0.00053
1005.40 0.00053
1005.50 0.00053
1005.60 0.00053
1005.70 0.00053
1005.80 0.00053
1005.90 0.00053
1006.00 0.00054
1006.10 0.00054
1006.20 0.00054
1006.30 0.00054
1006.40 0.00054
1006.50 0.00054
1006.60 0.00055
1006.70 0.00055
1006.80 0.00055
1006.90 0.00055
1007.00 0.00055
1007.10 0.00056
1007.20 0.00056
1007.30 0.00056
1007.40 0.00056
1007.50 0.00056
1007.60 0.00057
1007.70 0.00057
1007.80 0.00057
1007.90 0.00057
1008.00 0.00058
1008.10 0.00058
1008.20 0.00058
1008.30 0.00058
1008.40 0.00059
1008.50 0.00059
1008.60 0.00059
1008.70 0.00059
1008.80 0.00060
1008.90 0.00060
1009.00 0.00060
1009.10 0.00060
1009.20 0.00061
1009.30 0.00061
1009.40 0.00061
1009.50 0.00062
1009.60 0.00062
1009.70 0.00062
1009.80 0.00062
1009.90 0.00063
1010.00 0.00063
1010.10 0.00063
1010.20 0.00064
1010.30 0.00064
1010.40 0.00064
1010.50 0.00065
1010.60 0.00065
1010.70 0.00065
1010.80 0.00066
1010.90 0.00066
1011.00 0.00066
1011.10 0.00067
1011.20 0.00067
1011.30 0.00067
1011.40 0.00068
1011.50 0.00068
1011.60 0.00068
1011.70 0.00069
1011.80 0.00069
1011.90 0.00070
1012.00 0.00070
1012.10 0.00070
1012.20 0.00071
1012.30 0.00071
1012.40 0.00071
1012.50 0.00072
1012.60 0.00072
1012.70 0.00073
1012.80 0.00073
1012.90 0.00074
1013.00 0.00074
1013.10 0.00074
1013.20 0.00075
1013.30 0.00075
1013.40 0.00076
1013.50 0.00076
1013.60 0.00077
1013.70 0.00077
1013.80 0.00077
1013.90 0.00078
1014.00 0.00078
1014.10 0.00079
1014.20 0.00079
1014.30 0.00080
1014.40 0.00080
1014.50 0.00081
1014.60 0.00081
1014.70 0.00082
1014.80 0.00082
1014.90 0.00083
1015.00 0.00083
1015.10 0.00084
1015.20 0.00084
1015.30 0.00085
1015.40 0.00085
1015.50 0.00086
1015.60 0.00086
1015.70 0.00087
1015.80 0.00087
1015.90 0.00088
1016.00 0.00088
1016.10 0.00089
1016.20 0.00089
1016.30 0.00090
1016.40 0.00090
1016.50 0.00091
1016.60 0.00091
1016.70 0.00092
1016.80 0.00092
1016.90 0.00093
1017.00 0.00093
1017.10 0.00094
1017.20 0.00094
1017.30 0.00095
1017.40 0.00096
1017.50 0.00096
1017.60 0.00097
1017.70 0.00097
1017.80 0.00098
1017.90 0.00098
1018.00 0.00099
1018.10 0.00100
1018.20 0.00100
1018.30 0.00101
1018.40 0.00101
1018.50 0.00102
1018.60 0.00102
1018.70 0.00103
1018.80 0.00104
1018.90 0.00104
1019.00 0.00105
1019.10 0.00105
1019.20 0.00106
1019.30 0.00106
1019.40 0.00107
1019.50 0.00108
1019.60 0.00108
1019.70 0.00109
1019.80 0.00109
1019.90 0.00110
1020.00 0.00111
1020.10 0.00111
1020.20 0.00112
1020.30 0.00113
1020.40 0.00113
1020.50 0.00114
1020.60 0.00114
1020.70 0.00115
1020.80 0.00116
1020.90 0.00116
1021.00 0.00117
1021.10 0.00117
1021.20 0.00118
1021.30 0.00119
1021.40 0.00119
1021.50 0.00120
1021.60 0.00121
1021.70 0.00121
1021.80 0.00122
1021.90 0.00122
1022.00 0.00123
1022.10 0.00124
1022.20 0.00124
1022.30 0.00125
1022.40 0.00126
1022.50 0.00126
1022.60 0.00127
1022.70 0.00127
1022.80 0.00128
1022.90 0.00129
1023.00 0.00129
1023.10 0.00130
1023.20 0.00131
1023.30 0.00131
1023.40 0.00132
1023.50 0.00132
1023.60 0.00133
1023.70 0.00134
1023.80 0.00134
1023.90 0.00135
1024.00 0.00136
1024.10 0.00136
1024.20 0.00137
1024.30 0.00137
1024.40 0.00138
1024.50 0.00139
1024.60 0.00139
1024.70 0.00140
1024.80 0.00141
1024.90 0.00141
1025.00 0.00142
1025.10 0.00142
1025.20 0.00143
1025.30 0.00144
1025.40 0.00144
1025.50 0.00145
1025.60 0.00145
1025.70 0.00146
1025.80 0.00147
1025.90 0.00147
1026.00 0.00148
1026.10 0.00149
1026.20 0.00149
1026.30 0.00150
1026.40 0.00150
1026.50 0.00151
1026.60 0.00152
1026.70 0.00152
1026.80 0.00153
1026.90 0.00153
1027.00 0.00154
1027.10 0.00155
1027.20 0.00155
1027.30 0.00156
1027.40 0.00156
1027.50 0.00157
1027.60 0.00158
1027.70 0.00158
1027.80 0.00159
1027.90 0.00159
1028.00 0.00160
1028.10 0.00160
1028.20 0.00161
1028.30 0.00162
1028.40 0.00162
1028.50 0.00163
1028.60 0.00163
1028.70 0.00164
1028.80 0.00164
1028.90 0.00165
1029.00 0.00166
1029.10 0.00166
1029.20 0.00167
1029.30 0.00167
1029.40 0.00168
1029.50 0.00168
1029.60 0.00169
1029.70 0.00170
1029.80 0.00170
1029.90 0.00171
1030.00 0.00171
1030.10 0.00172
1030.20 0.00172
1030.30 0.00173
1030.40 0.00173
1030.50 0.00174
1030.60 0.00174
1030.70 0.00175
1030.80 0.00175
1030.90 0.00176
1031.00 0.00176
1031.10 0.00177
1031.20 0.00178
1031.30 0.00178
1031.40 0.00179
1031.50 0.00179
1031.60 0.00180
1031.70 0.00180
1031.80 0.00181
1031.90 0.00181
1032.00 0.00182
1032.10 0.00182
1032.20 0.00183
1032.30 0.00183
1032.40 0.00184
1032.50 0.00184
1032.60 0.00185
1032.70 0.00185
1032.80 0.00186
1032.90 0.00186
1033.00 0.00187
1033.10 0.00187
1033.20 0.00187
1033.30 0.00188
1033.40 0.00188
1033.50 0.00189
1033.60 0.00189
1033.70 0.00190
1033.80 0.00190
1033.90 0.00191
1034.00 0.00191
1034.10 0.00192
1034.20 0.00192
1034.30 0.00193
1034.40 0.00193
1034.50 0.00193
1034.60 0.00194
1034.70 0.00194
1034.80 0.00195
1034.90 0.00195
1035.00 0.00196
1035.10 0.00196
1035.20 0.00197
1035.30 0.00197
1035.40 0.00197
1035.50 0.00198
1035.60 0.00198
1035.70 0.00199
1035.80 0.00199
1035.90 0.00200
1036.00 0.00200
1036.10 0.00200
1036.20 0.00201
1036.30 0.00201
1036.40 0.00202
1036.50 0.00202
1036.60 0.00203
1036.70 0.00203
1036.80 0.00203
1036.90 0.00204
1037.00 0.00204
1037.10 0.00205
1037.20 0.00205
1037.30 0.00206
1037.40 0.00206
1037.50 0.00206
1037.60 0.00207
1037.70 0.00207
1037.80 0.00208
1037.90 0.00208
1038.00 0.00208
1038.10 0.00209
1038.20 0.00209
1038.30 0.00210
1038.40 0.00210
1038.50 0.00210
1038.60 0.00211
1038.70 0.00211
1038.80 0.00212
1038.90 0.00212
1039.00 0.00213
1039.10 0.00213
1039.20 0.00213
1039.30 0.00214
1039.40 0.00214
1039.50 0.00215
1039.60 0.00215
1039.70 0.00215
1039.80 0.00216
1039.90 0.00216
1040.00 0.00217
1040.10 0.00217
1040.20 0.00218
1040.30 0.00218
1040.40 0.00218
1040.50 0.00219
1040.60 0.00219
1040.70 0.00220
1040.80 0.00220
1040.90 0.00221
1041.00 0.00221
1041.10 0.00222
1041.20 0.00222
1041.30 0.00222
1041.40 0.00223
1041.50 0.00223
1041.60 0.00224
1041.70 0.00224
1041.80 0.00225
1041.90 0.00225
1042.00 0.00226
1042.10 0.00226
1042.20 0.00227
1042.30 0.00227
1042.40 0.00228
1042.50 0.00228
1042.60 0.00229
1042.70 0.00229
1042.80 0.00230
1042.90 0.00230
1043.00 0.00231
1043.10 0.00231
1043.20 0.00232
1043.30 0.00232
1043.40 0.00233
1043.50 0.00233
1043.60 0.00234
1043.70 0.00234
1043.80 0.00235
1043.90 0.00235
1044.00 0.00236
1044.10 0.00237
1044.20 0.00237
1044.30 0.00238
1044.40 0.00238
1044.50 0.00239
1044.60 0.00240
1044.70 0.00240
1044.80 0.00241
1044.90 0.00241
1045.00 0.00242
1045.10 0.00243
1045.20 0.00243
1045.30 0.00244
1045.40 0.00245
1045.50 0.00245
1045.60 0.00246
1045.70 0.00247
1045.80 0.00247
1045.90 0.00248
1046.00 0.00249
1046.10 0.00249
1046.20 0.00250
1046.30 0.00251
1046.40 0.00251
1046.50 0.00252
1046.60 0.00253
1046.70 0.00254
1046.80 0.00254
1046.90 0.00255
1047.00 0.00256
1047.10 0.00257
1047.20 0.00258
1047.30 0.00258
1047.40 0.00259
1047.50 0.00260
1047.60 0.00261
1047.70 0.00262
1047.80 0.00263
1047.90 0.00264
1048.00 0.00264
1048.10 0.00265
1048.20 0.00266
1048.30 0.00267
1048.40 0.00268
1048.50 0.00269
1048.60 0.00270
1048.70 0.00271
1048.80 0.00272
1048.90 0.00273
1049.00 0.00274
1049.10 0.00275
1049.20 0.00276
1049.30 0.00277
1049.40 0.00278
1049.50 0.00279
1049.60 0.00280
1049.70 0.00281
1049.80 0.00282
1049.90 0.00283
1050.00 0.00285
1050.10 0.00286
1050.20 0.00287
1050.30 0.00288
1050.40 0.00289
1050.50 0.00290
1050.60 0.00292
1050.70 0.00293
1050.80 0.00294
1050.90 0.00295
1051.00 0.00297
1051.10 0.00298
1051.20 0.00299
1051.30 0.00300
1051.40 0.00302
1051.50 0.00303
1051.60 0.00305
1051.70 0.00306
1051.80 0.00307
1051.90 0.00309
1052.00 0.00310
1052.10 0.00312
1052.20 0.00313
1052.30 0.00314
1052.40 0.00316
1052.50 0.00317
1052.60 0.00319
1052.70 0.00321
1052.80 0.00322
1052.90 0.00324
1053.00 0.00325
1053.10 0.00327
1053.20 0.00329
1053.30 0.00330
1053.40 0.00332
1053.50 0.00334
1053.60 0.00335
1053.70 0.00337
1053.80 0.00339
1053.90 0.00340
1054.00 0.00342
1054.10 0.00344
1054.20 0.00346
1054.30 0.00348
1054.40 0.00349
1054.50 0.00351
1054.60 0.00353
1054.70 0.00355
1054.80 0.00357
1054.90 0.00359
1055.00 0.00361
1055.10 0.00363
1055.20 0.00365
1055.30 0.00367
1055.40 0.00369
1055.50 0.00371
1055.60 0.00373
1055.70 0.00375
1055.80 0.00378
1055.90 0.00380
1056.00 0.00382
1056.10 0.00384
1056.20 0.00386
1056.30 0.00388
1056.40 0.00391
1056.50 0.00393
1056.60 0.00395
1056.70 0.00398
1056.80 0.00400
1056.90 0.00402
1057.00 0.00405
1057.10 0.00407
1057.20 0.00410
1057.30 0.00412
1057.40 0.00415
1057.50 0.00417
1057.60 0.00420
1057.70 0.00422
1057.80 0.00425
1057.90 0.00427
1058.00 0.00430
1058.10 0.00433
1058.20 0.00435
1058.30 0.00438
1058.40 0.00441
1058.50 0.00443
1058.60 0.00446
1058.70 0.00449
1058.80 0.00452
1058.90 0.00455
1059.00 0.00457
1059.10 0.00460
1059.20 0.00463
1059.30 0.00466
1059.40 0.00469
1059.50 0.00472
1059.60 0.00475
1059.70 0.00478
1059.80 0.00481
1059.90 0.00484
1060.00 0.00487
1060.10 0.00490
1060.20 0.00493
1060.30 0.00497
1060.40 0.00500
1060.50 0.00503
1060.60 0.00506
1060.70 0.00510
1060.80 0.00513
1060.90 0.00516
1061.00 0.00519
1061.10 0.00523
1061.20 0.00526
1061.30 0.00530
1061.40 0.00533
1061.50 0.00537
1061.60 0.00540
1061.70 0.00544
1061.80 0.00547
1061.90 0.00551
1062.00 0.00554
1062.10 0.00558
1062.20 0.00562
1062.30 0.00565
1062.40 0.00569
1062.50 0.00573
1062.60 0.00576
1062.70 0.00580
1062.80 0.00584
1062.90 0.00588
1063.00 0.00592
1063.10 0.00595
1063.20 0.00599
1063.30 0.00603
1063.40 0.00607
1063.50 0.00611
1063.60 0.00615
1063.70 0.00619
1063.80 0.00623
1063.90 0.00627
1064.00 0.00631
1064.10 0.00636
1064.20 0.00640
1064.30 0.00644
1064.40 0.00648
1064.50 0.00652
1064.60 0.00657
1064.70 0.00661
1064.80 0.00665
1064.90 0.00669
1065.00 0.00674
1065.10 0.00678
1065.20 0.00683
1065.30 0.00687
1065.40 0.00691
1065.50 0.00696
1065.60 0.00700
1065.70 0.00705
1065.80 0.00710
1065.90 0.00714
1066.00 0.00719
1066.10 0.00723
1066.20 0.00728
1066.30 0.00733
1066.40 0.00737
1066.50 0.00742
1066.60 0.00747
1066.70 0.00752
1066.80 0.00756
1066.90 0.00761
1067.00 0.00766
1067.10 0.00771
1067.20 0.00776
1067.30 0.00781
1067.40 0.00786
1067.50 0.00791
1067.60 0.00796
1067.70 0.00801
1067.80 0.00806
1067.90 0.00811
1068.00 0.00816
1068.10 0.00821
1068.20 0.00826
1068.30 0.00831
1068.40 0.00837
1068.50 0.00842
1068.60 0.00847
1068.70 0.00852
1068.80 0.00858
1068.90 0.00863
1069.00 0.00868
1069.10 0.00874
1069.20 0.00879
1069.30 0.00884
1069.40 0.00890
1069.50 0.00895
1069.60 0.00901
1069.70 0.00906
1069.80 0.00912
1069.90 0.00917
1070.00 0.00923
1070.10 0.00928
1070.20 0.00934
1070.30 0.00940
1070.40 0.00945
1070.50 0.00951
1070.60 0.00957
1070.70 0.00962
1070.80 0.00968
1070.90 0.00974
1071.00 0.00980
1071.10 0.00985
1071.20 0.00991
1071.30 0.00997
1071.40 0.01003
1071.50 0.01009
1071.60 0.01015
1071.70 0.01020
1071.80 0.01026
1071.90 0.01032
1072.00 0.01038
1072.10 0.01044
1072.20 0.01050
1072.30 0.01056
1072.40 0.01062
1072.50 0.01069
1072.60 0.01075
1072.70 0.01081
1072.80 0.01087
1072.90 0.01093
1073.00 0.01099
1073.10 0.01105
1073.20 0.01112
1073.30 0.01118
1073.40 0.01124
1073.50 0.01130
1073.60 0.01136
1073.70 0.01143
1073.80 0.01149
1073.90 0.01155
1074.00 0.01162
1074.10 0.01168
1074.20 0.01174
1074.30 0.01181
1074.40 0.01187
1074.50 0.01194
1074.60 0.01200
1074.70 0.01207
1074.80 0.01213
1074.90 0.01219
1075.00 0.01226
1075.10 0.01233
1075.20 0.01239
1075.30 0.01246
1075.40 0.01252
1075.50 0.01259
1075.60 0.01265
1075.70 0.01272
1075.80 0.01278
1075.90 0.01285
1076.00 0.01292
1076.10 0.01298
1076.20 0.01305
1076.30 0.01312
1076.40 0.01318
1076.50 0.01325
1076.60 0.01332
1076.70 0.01339
1076.80 0.01345
1076.90 0.01352
1077.00 0.01359
1077.10 0.01366
1077.20 0.01372
1077.30 0.01379
1077.40 0.01386
1077.50 0.01393
1077.60 0.01400
1077.70 0.01406
1077.80 0.01413
1077.90 0.01420
1078.00 0.01427
1078.10 0.01434
1078.20 0.01441
1078.30 0.01448
1078.40 0.01454
1078.50 0.01461
1078.60 0.01468
1078.70 0.01475
1078.80 0.01482
1078.90 0.01489
1079.00 0.01496
1079.10 0.01503
1079.20 0.01510
1079.30 0.01517
1079.40 0.01524
1079.50 0.01531
1079.60 0.01538
1079.70 0.01545
1079.80 0.01552
1079.90 0.01559
1080.00 0.01566
1080.10 0.01573
1080.20 0.01580
1080.30 0.01587
1080.40 0.01594
1080.50 0.01601
1080.60 0.01608
1080.70 0.01615
1080.80 0.01622
1080.90 0.01629
1081.00 0.01636
1081.10 0.01643
1081.20 0.01650
1081.30 0.01657
1081.40 0.01664
1081.50 0.01671
1081.60 0.01678
1081.70 0.01685
1081.80 0.01692
1081.90 0.01700
1082.00 0.01707
1082.10 0.01714
1082.20 0.01721
1082.30 0.01728
1082.40 0.01735
1082.50 0.01742
1082.60 0.01749
1082.70 0.01756
1082.80 0.01763
1082.90 0.01770
1083.00 0.01777
1083.10 0.01784
1083.20 0.01791
1083.30 0.01798
1083.40 0.01805
1083.50 0.01813
1083.60 0.01820
1083.70 0.01827
1083.80 0.01834
1083.90 0.01841
1084.00 0.01848
1084.10 0.01855
1084.20 0.01862
1084.30 0.01869
1084.40 0.01876
1084.50 0.01883
1084.60 0.01890
1084.70 0.01897
1084.80 0.01904
1084.90 0.01911
1085.00 0.01918
1085.10 0.01925
1085.20 0.01932
1085.30 0.01939
1085.40 0.01946
1085.50 0.01953
1085.60 0.01960
1085.70 0.01967
1085.80 0.01974
1085.90 0.01981
1086.00 0.01987
1086.10 0.01994
1086.20 0.02001
1086.30 0.02008
1086.40 0.02015
1086.50 0.02022
1086.60 0.02029
1086.70 0.02036
1086.80 0.02043
1086.90 0.02049
1087.00 0.02056
1087.10 0.02063
1087.20 0.02070
1087.30 0.02077
1087.40 0.02084
1087.50 0.02090
1087.60 0.02097
1087.70 0.02104
1087.80 0.02111
1087.90 0.02117
1088.00 0.02124
1088.10 0.02131
1088.20 0.02137
1088.30 0.02144
1088.40 0.02151
1088.50 0.02158
1088.60 0.02164
1088.70 0.02171
1088.80 0.02177
1088.90 0.02184
1089.00 0.02191
1089.10 0.02197
1089.20 0.02204
1089.30 0.02210
1089.40 0.02217
1089.50 0.02223
1089.60 0.02230
1089.70 0.02237
1089.80 0.02243
1089.90 0.02249
1090.00 0.02256
1090.10 0.02262
1090.20 0.02269
1090.30 0.02275
1090.40 0.02282
1090.50 0.02288
1090.60 0.02294
1090.70 0.02301
1090.80 0.02307
1090.90 0.02313
1091.00 0.02320
1091.10 0.02326
1091.20 0.02332
1091.30 0.02338
1091.40 0.02345
1091.50 0.02351
1091.60 0.02357
1091.70 0.02363
1091.80 0.02369
1091.90 0.02375
1092.00 0.02382
1092.10 0.02388
1092.20 0.02394
1092.30 0.02400
1092.40 0.02406
1092.50 0.02412
1092.60 0.02418
1092.70 0.02424
1092.80 0.02430
1092.90 0.02436
1093.00 0.02442
1093.10 0.02448
1093.20 0.02453
1093.30 0.02459
1093.40 0.02465
1093.50 0.02471
1093.60 0.02477
1093.70 0.02483
1093.80 0.02488
1093.90 0.02494
1094.00 0.02500
1094.10 0.02505
1094.20 0.02511
1094.30 0.02517
1094.40 0.02522
1094.50 0.02528
1094.60 0.02533
1094.70 0.02539
1094.80 0.02545
1094.90 0.02550
1095.00 0.02556
1095.10 0.02561
1095.20 0.02566
1095.30 0.02572
1095.40 0.02577
1095.50 0.02583
1095.60 0.02588
1095.70 0.02593
1095.80 0.02599
1095.90 0.02604
1096.00 0.02609
1096.10 0.02614
1096.20 0.02620
1096.30 0.02625
1096.40 0.02630
1096.50 0.02635
1096.60 0.02640
1096.70 0.02645
1096.80 0.02650
1096.90 0.02655
1097.00 0.02660
1097.10 0.02665
1097.20 0.02670
1097.30 0.02675
1097.40 0.02680
1097.50 0.02685
1097.60 0.02690
1097.70 0.02695
1097.80 0.02699
1097.90 0.02704
1098.00 0.02709
1098.10 0.02714
1098.20 0.02718
1098.30 0.02723
1098.40 0.02728
1098.50 0.02732
1098.60 0.02737
1098.70 0.02741
1098.80 0.02746
1098.90 0.02750
1099.00 0.02755
1099.10 0.02759
1099.20 0.02764
1099.30 0.02768
1099.40 0.02773
1099.50 0.02777
1099.60 0.02781
1099.70 0.02786
1099.80 0.02790
1099.90 0.02794
1100.00 0.02798
1100.10 0.02802
1100.20 0.02807
1100.30 0.02811
1100.40 0.02815
1100.50 0.02819
1100.60 0.02823
1100.70 0.02827
1100.80 0.02831
1100.90 0.02835
1101.00 0.02839
1101.10 0.02843
1101.20 0.02847
1101.30 0.02851
1101.40 0.02854
1101.50 0.02858
1101.60 0.02862
1101.70 0.02866
1101.80 0.02869
1101.90 0.02873
1102.00 0.02877
1102.10 0.02880
1102.20 0.02884
1102.30 0.02888
1102.40 0.02891
1102.50 0.02895
1102.60 0.02898
1102.70 0.02902
1102.80 0.02905
1102.90 0.02908
1103.00 0.02912
1103.10 0.02915
1103.20 0.02919
1103.30 0.02922
1103.40 0.02925
1103.50 0.02928
1103.60 0.02932
1103.70 0.02935
1103.80 0.02938
1103.90 0.02941
1104.00 0.02944
1104.10 0.02947
1104.20 0.02950
1104.30 0.02953
1104.40 0.02956
1104.50 0.02959
1104.60 0.02962
1104.70 0.02965
1104.80 0.02968
1104.90 0.02971
1105.00 0.02973
1105.10 0.02976
1105.20 0.02979
1105.30 0.02982
1105.40 0.02984
1105.50 0.02987
1105.60 0.02990
1105.70 0.02992
1105.80 0.02995
1105.90 0.02998
1106.00 0.03000
1106.10 0.03003
1106.20 0.03005
1106.30 0.03008
1106.40 0.03010
1106.50 0.03012
1106.60 0.03015
1106.70 0.03017
1106.80 0.03019
1106.90 0.03022
1107.00 0.03024
1107.10 0.03026
1107.20 0.03028
1107.30 0.03030
1107.40 0.03033
1107.50 0.03035
1107.60 0.03037
1107.70 0.03039
1107.80 0.03041
1107.90 0.03043
1108.00 0.03045
1108.10 0.03047
1108.20 0.03049
1108.30 0.03051
1108.40 0.03053
1108.50 0.03054
1108.60 0.03056
1108.70 0.03058
1108.80 0.03060
1108.90 0.03062
1109.00 0.03063
1109.10 0.03065
1109.20 0.03067
1109.30 0.03068
1109.40 0.03070
1109.50 0.03071
1109.60 0.03073
1109.70 0.03074
1109.80 0.03076
1109.90 0.03077
1110.00 0.03079
1110.10 0.03080
1110.20 0.03082
1110.30 0.03083
1110.40 0.03084
1110.50 0.03086
1110.60 0.03087
1110.70 0.03088
1110.80 0.03089
1110.90 0.03091
1111.00 0.03092
1111.10 0.03093
1111.20 0.03094
1111.30 0.03095
1111.40 0.03096
1111.50 0.03097
1111.60 0.03098
1111.70 0.03099
1111.80 0.03100
1111.90 0.03101
1112.00 0.03102
1112.10 0.03103
1112.20 0.03104
1112.30 0.03105
1112.40 0.03106
1112.50 0.03107
1112.60 0.03107
1112.70 0.03108
1112.80 0.03109
1112.90 0.03110
1113.00 0.03110
1113.10 0.03111
1113.20 0.03112
1113.30 0.03112
1113.40 0.03113
1113.50 0.03113
1113.60 0.03114
1113.70 0.03114
1113.80 0.03115
1113.90 0.03115
1114.00 0.03116
1114.10 0.03116
1114.20 0.03117
1114.30 0.03117
1114.40 0.03117
1114.50 0.03118
1114.60 0.03118
1114.70 0.03118
1114.80 0.03119
1114.90 0.03119
1115.00 0.03119
1115.10 0.03119
1115.20 0.03119
1115.30 0.03120
1115.40 0.03120
1115.50 0.03120
1115.60 0.03120
1115.70 0.03120
1115.80 0.03120
1115.90 0.03120
1116.00 0.03120
1116.10 0.03120
1116.20 0.03120
1116.30 0.03120
1116.40 0.03120
1116.50 0.03120
1116.60 0.03120
1116.70 0.03120
1116.80 0.03119
1116.90 0.03119
1117.00 0.03119
1117.10 0.03119
1117.20 0.03118
1117.30 0.03118
1117.40 0.03118
1117.50 0.03118
1117.60 0.03117
1117.70 0.03117
1117.80 0.03117
1117.90 0.03116
1118.00 0.03116
1118.10 0.03115
1118.20 0.03115
1118.30 0.03114
1118.40 0.03114
1118.50 0.03114
1118.60 0.03113
1118.70 0.03112
1118.80 0.03112
1118.90 0.03111
1119.00 0.03111
1119.10 0.03110
1119.20 0.03109
1119.30 0.03109
1119.40 0.03108
1119.50 0.03107
1119.60 0.03107
1119.70 0.03106
1119.80 0.03105
1119.90 0.03105
1120.00 0.03104
1120.10 0.03103
1120.20 0.03102
1120.30 0.03101
1120.40 0.03101
1120.50 0.03100
1120.60 0.03099
1120.70 0.03098
1120.80 0.03097
1120.90 0.03096
1121.00 0.03095
1121.10 0.03094
1121.20 0.03093
1121.30 0.03092
1121.40 0.03091
1121.50 0.03090
1121.60 0.03089
1121.70 0.03088
1121.80 0.03087
1121.90 0.03086
1122.00 0.03085
1122.10 0.03084
1122.20 0.03083
1122.30 0.03082
1122.40 0.03080
1122.50 0.03079
1122.60 0.03078
1122.70 0.03077
1122.80 0.03076
1122.90 0.03074
1123.00 0.03073
1123.10 0.03072
1123.20 0.03071
1123.30 0.03069
1123.40 0.03068
1123.50 0.03067
1123.60 0.03065
1123.70 0.03064
1123.80 0.03063
1123.90 0.03061
1124.00 0.03060
1124.10 0.03059
1124.20 0.03057
1124.30 0.03056
1124.40 0.03054
1124.50 0.03053
1124.60 0.03051
1124.70 0.03050
1124.80 0.03048
1124.90 0.03047
1125.00 0.03045
1125.10 0.03044
1125.20 0.03042
1125.30 0.03041
1125.40 0.03039
1125.50 0.03038
1125.60 0.03036
1125.70 0.03034
1125.80 0.03033
1125.90 0.03031
1126.00 0.03030
1126.10 0.03028
1126.20 0.03026
1126.30 0.03025
1126.40 0.03023
1126.50 0.03021
1126.60 0.03020
1126.70 0.03018
1126.80 0.03016
1126.90 0.03015
1127.00 0.03013
1127.10 0.03011
1127.20 0.03009
1127.30 0.03008
1127.40 0.03006
1127.50 0.03004
1127.60 0.03002
1127.70 0.03000
1127.80 0.02999
1127.90 0.02997
1128.00 0.02995
1128.10 0.02993
1128.20 0.02991
1128.30 0.02989
1128.40 0.02988
1128.50 0.02986
1128.60 0.02984
1128.70 0.02982
1128.80 0.02980
1128.90 0.02978
1129.00 0.02976
1129.10 0.02974
1129.20 0.02972
1129.30 0.02970
1129.40 0.02968
1129.50 0.02966
1129.60 0.02964
1129.70 0.02963
1129.80 0.02961
1129.90 0.02959
1130.00 0.02957
1130.10 0.02955
1130.20 0.02953
1130.30 0.02951
1130.40 0.02948
1130.50 0.02946
1130.60 0.02944
1130.70 0.02942
1130.80 0.02940
1130.90 0.02938
1131.00 0.02936
1131.10 0.02934
1131.20 0.02932
1131.30 0.02930
1131.40 0.02928
1131.50 0.02926
1131.60 0.02924
1131.70 0.02922
1131.80 0.02919
1131.90 0.02917
1132.00 0.02915
1132.10 0.02913
1132.20 0.02911
1132.30 0.02909
1132.40 0.02907
1132.50 0.02904
1132.60 0.02902
1132.70 0.02900
1132.80 0.02898
1132.90 0.02896
1133.00 0.02894
1133.10 0.02891
1133.20 0.02889
1133.30 0.02887
1133.40 0.02885
1133.50 0.02883
1133.60 0.02880
1133.70 0.02878
1133.80 0.02876
1133.90 0.02874
1134.00 0.02872
1134.10 0.02869
1134.20 0.02867
1134.30 0.02865
1134.40 0.02863
1134.50 0.02860
1134.60 0.02858
1134.70 0.02856
1134.80 0.02854
1134.90 0.02851
1135.00 0.02849
1135.10 0.02847
1135.20 0.02845
1135.30 0.02842
1135.40 0.02840
1135.50 0.02838
1135.60 0.02835
1135.70 0.02833
1135.80 0.02831
1135.90 0.02829
1136.00 0.02826
1136.10 0.02824
1136.20 0.02822
1136.30 0.02819
1136.40 0.02817
1136.50 0.02815
1136.60 0.02812
1136.70 0.02810
1136.80 0.02808
1136.90 0.02805
1137.00 0.02803
1137.10 0.02801
1137.20 0.02798
1137.30 0.02796
1137.40 0.02794
1137.50 0.02791
1137.60 0.02789
1137.70 0.02787
1137.80 0.02784
1137.90 0.02782
1138.00 0.02780
1138.10 0.02777
1138.20 0.02775
1138.30 0.02773
1138.40 0.02770
1138.50 0.02768
1138.60 0.02766
1138.70 0.02763
1138.80 0.02761
1138.90 0.02759
1139.00 0.02756
1139.10 0.02754
1139.20 0.02752
1139.30 0.02749
1139.40 0.02747
1139.50 0.02745
1139.60 0.02742
1139.70 0.02740
1139.80 0.02737
1139.90 0.02735
1140.00 0.02733
1140.10 0.02730
1140.20 0.02728
1140.30 0.02726
1140.40 0.02723
1140.50 0.02721
1140.60 0.02719
1140.70 0.02716
1140.80 0.02714
1140.90 0.02711
1141.00 0.02709
1141.10 0.02707
1141.20 0.02704
1141.30 0.02702
1141.40 0.02700
1141.50 0.02697
1141.60 0.02695
1141.70 0.02693
1141.80 0.02690
1141.90 0.02688
1142.00 0.02686
1142.10 0.02683
1142.20 0.02681
1142.30 0.02678
1142.40 0.02676
1142.50 0.02674
1142.60 0.02671
1142.70 0.02669
1142.80 0.02667
1142.90 0.02664
1143.00 0.02662
1143.10 0.02660
1143.20 0.02657
1143.30 0.02655
1143.40 0.02653
1143.50 0.02650
1143.60 0.02648
1143.70 0.02646
1143.80 0.02643
1143.90 0.02641
1144.00 0.02639
1144.10 0.02636
1144.20 0.02634
1144.30 0.02632
1144.40 0.02629
1144.50 0.02627
1144.60 0.02625
1144.70 0.02622
1144.80 0.02620
1144.90 0.02618
1145.00 0.02615
1145.10 0.02613
1145.20 0.02611
1145.30 0.02608
1145.40 0.02606
1145.50 0.02604
1145.60 0.02601
1145.70 0.02599
1145.80 0.02597
1145.90 0.02594
1146.00 0.02592
1146.10 0.02590
1146.20 0.02588
1146.30 0.02585
1146.40 0.02583
1146.50 0.02581
1146.60 0.02578
1146.70 0.02576
1146.80 0.02574
1146.90 0.02572
1147.00 0.02569
1147.10 0.02567
1147.20 0.02565
1147.30 0.02563
1147.40 0.02560
1147.50 0.02558
1147.60 0.02556
1147.70 0.02553
1147.80 0.02551
1147.90 0.02549
1148.00 0.02547
1148.10 0.02544
1148.20 0.02542
1148.30 0.02540
1148.40 0.02538
1148.50 0.02535
1148.60 0.02533
1148.70 0.02531
1148.80 0.02529
1148.90 0.02527
1149.00 0.02524
1149.10 0.02522
1149.20 0.02520
1149.30 0.02518
1149.40 0.02515
1149.50 0.02513
1149.60 0.02511
1149.70 0.02509
1149.80 0.02507
1149.90 0.02505
1150.00 0.02502
1150.10 0.02500
1150.20 0.02498
1150.30 0.02496
1150.40 0.02494
1150.50 0.02491
1150.60 0.02489
1150.70 0.02487
1150.80 0.02485
1150.90 0.02483
1151.00 0.02481
1151.10 0.02478
1151.20 0.02476
1151.30 0.02474
1151.40 0.02472
1151.50 0.02470
1151.60 0.02468
1151.70 0.02466
1151.80 0.02464
1151.90 0.02461
1152.00 0.02459
1152.10 0.02457
1152.20 0.02455
1152.30 0.02453
1152.40 0.02451
1152.50 0.02449
1152.60 0.02447
1152.70 0.02445
1152.80 0.02442
1152.90 0.02440
1153.00 0.02438
1153.10 0.02436
1153.20 0.02434
1153.30 0.02432
1153.40 0.02430
1153.50 0.02428
1153.60 0.02426
1153.70 0.02424
1153.80 0.02422
1153.90 0.02420
1154.00 0.02418
1154.10 0.02416
1154.20 0.02414
1154.30 0.02412
1154.40 0.02410
1154.50 0.02408
1154.60 0.02406
1154.70 0.02404
1154.80 0.02402
1154.90 0.02400
1155.00 0.02398
1155.10 0.02396
1155.20 0.02394
1155.30 0.02392
1155.40 0.02390
1155.50 0.02388
1155.60 0.02386
1155.70 0.02384
1155.80 0.02382
1155.90 0.02380
1156.00 0.02378
1156.10 0.02376
1156.20 0.02374
1156.30 0.02372
1156.40 0.02370
1156.50 0.02368
1156.60 0.02366
1156.70 0.02364
1156.80 0.02362
1156.90 0.02360
1157.00 0.02359
1157.10 0.02357
1157.20 0.02355
1157.30 0.02353
1157.40 0.02351
1157.50 0.02349
1157.60 0.02347
1157.70 0.02345
1157.80 0.02343
1157.90 0.02342
1158.00 0.02340
1158.10 0.02338
1158.20 0.02336
1158.30 0.02334
1158.40 0.02332
1158.50 0.02330
1158.60 0.02329
1158.70 0.02327
1158.80 0.02325
1158.90 0.02323
1159.00 0.02321
1159.10 0.02319
1159.20 0.02318
1159.30 0.02316
1159.40 0.02314
1159.50 0.02312
1159.60 0.02310
1159.70 0.02309
1159.80 0.02307
1159.90 0.02305
1160.00 0.02303
1160.10 0.02302
1160.20 0.02300
1160.30 0.02298
1160.40 0.02296
1160.50 0.02295
1160.60 0.02293
1160.70 0.02291
1160.80 0.02289
1160.90 0.02288
1161.00 0.02286
1161.10 0.02284
1161.20 0.02282
1161.30 0.02281
1161.40 0.02279
1161.50 0.02277
1161.60 0.02276
1161.70 0.02274
1161.80 0.02272
1161.90 0.02270
1162.00 0.02269
1162.10 0.02267
1162.20 0.02265
1162.30 0.02264
1162.40 0.02262
1162.50 0.02260
1162.60 0.02259
1162.70 0.02257
1162.80 0.02256
1162.90 0.02254
1163.00 0.02252
1163.10 0.02251
1163.20 0.02249
1163.30 0.02247
1163.40 0.02246
1163.50 0.02244
1163.60 0.02243
1163.70 0.02241
1163.80 0.02239
1163.90 0.02238
1164.00 0.02236
1164.10 0.02235
1164.20 0.02233
1164.30 0.02231
1164.40 0.02230
1164.50 0.02228
1164.60 0.02227
1164.70 0.02225
1164.80 0.02224
1164.90 0.02222
1165.00 0.02220
1165.10 0.02219
1165.20 0.02217
1165.30 0.02216
1165.40 0.02214
1165.50 0.02213
1165.60 0.02211
1165.70 0.02210
1165.80 0.02208
1165.90 0.02207
1166.00 0.02205
1166.10 0.02204
1166.20 0.02202
1166.30 0.02201
1166.40 0.02199
1166.50 0.02198
1166.60 0.02196
1166.70 0.02195
1166.80 0.02193
1166.90 0.02192
1167.00 0.02190
1167.10 0.02189
1167.20 0.02188
1167.30 0.02186
1167.40 0.02185
1167.50 0.02183
1167.60 0.02182
1167.70 0.02180
1167.80 0.02179
1167.90 0.02178
1168.00 0.02176
1168.10 0.02175
1168.20 0.02173
1168.30 0.02172
1168.40 0.02170
1168.50 0.02169
1168.60 0.02168
1168.70 0.02166
1168.80 0.02165
1168.90 0.02164
1169.00 0.02162
1169.10 0.02161
1169.20 0.02159
1169.30 0.02158
1169.40 0.02157
1169.50 0.02155
1169.60 0.02154
1169.70 0.02153
1169.80 0.02151
1169.90 0.02150
1170.00 0.02149
1170.10 0.02147
1170.20 0.02146
1170.30 0.02145
1170.40 0.02143
1170.50 0.02142
1170.60 0.02141
1170.70 0.02139
1170.80 0.02138
1170.90 0.02137
1171.00 0.02135
1171.10 0.02134
1171.20 0.02133
1171.30 0.02132
1171.40 0.02130
1171.50 0.02129
1171.60 0.02128
1171.70 0.02127
1171.80 0.02125
1171.90 0.02124
1172.00 0.02123
1172.10 0.02121
1172.20 0.02120
1172.30 0.02119
1172.40 0.02118
1172.50 0.02116
1172.60 0.02115
1172.70 0.02114
1172.80 0.02113
1172.90 0.02112
1173.00 0.02110
1173.10 0.02109
1173.20 0.02108
1173.30 0.02107
1173.40 0.02105
1173.50 0.02104
1173.60 0.02103
1173.70 0.02102
1173.80 0.02101
1173.90 0.02099
1174.00 0.02098
1174.10 0.02097
1174.20 0.02096
1174.30 0.02095
1174.40 0.02094
1174.50 0.02092
1174.60 0.02091
1174.70 0.02090
1174.80 0.02089
1174.90 0.02088
1175.00 0.02087
1175.10 0.02085
1175.20 0.02084
1175.30 0.02083
1175.40 0.02082
1175.50 0.02081
1175.60 0.02080
1175.70 0.02078
1175.80 0.02077
1175.90 0.02076
1176.00 0.02075
1176.10 0.02074
1176.20 0.02073
1176.30 0.02072
1176.40 0.02071
1176.50 0.02069
1176.60 0.02068
1176.70 0.02067
1176.80 0.02066
1176.90 0.02065
1177.00 0.02064
1177.10 0.02063
1177.20 0.02062
1177.30 0.02061
1177.40 0.02059
1177.50 0.02058
1177.60 0.02057
1177.70 0.02056
1177.80 0.02055
1177.90 0.02054
1178.00 0.02053
1178.10 0.02052
1178.20 0.02051
1178.30 0.02050
1178.40 0.02049
1178.50 0.02048
1178.60 0.02047
1178.70 0.02045
1178.80 0.02044
1178.90 0.02043
1179.00 0.02042
1179.10 0.02041
1179.20 0.02040
1179.30 0.02039
1179.40 0.02038
1179.50 0.02037
1179.60 0.02036
1179.70 0.02035
1179.80 0.02034
1179.90 0.02033
1180.00 0.02032
1180.10 0.02031
1180.20 0.02030
1180.30 0.02029
1180.40 0.02028
1180.50 0.02027
1180.60 0.02026
1180.70 0.02025
1180.80 0.02024
1180.90 0.02022
1181.00 0.02021
1181.10 0.02020
1181.20 0.02019
1181.30 0.02018
1181.40 0.02017
1181.50 0.02016
1181.60 0.02015
1181.70 0.02014
1181.80 0.02013
1181.90 0.02012
1182.00 0.02011
1182.10 0.02010
1182.20 0.02009
1182.30 0.02008
1182.40 0.02007
1182.50 0.02006
1182.60 0.02005
1182.70 0.02004
1182.80 0.02003
1182.90 0.02002
1183.00 0.02001
1183.10 0.02000
1183.20 0.01999
1183.30 0.01998
1183.40 0.01997
1183.50 0.01996
1183.60 0.01995
1183.70 0.01994
1183.80 0.01993
1183.90 0.01992
1184.00 0.01991
1184.10 0.01990
1184.20 0.01989
1184.30 0.01988
1184.40 0.01987
1184.50 0.01986
1184.60 0.01985
1184.70 0.01984
1184.80 0.01983
1184.90 0.01983
1185.00 0.01982
1185.10 0.01981
1185.20 0.01980
1185.30 0.01979
1185.40 0.01978
1185.50 0.01977
1185.60 0.01976
1185.70 0.01975
1185.80 0.01974
1185.90 0.01973
1186.00 0.01972
1186.10 0.01971
1186.20 0.01970
1186.30 0.01969
1186.40 0.01968
1186.50 0.01967
1186.60 0.01966
1186.70 0.01965
1186.80 0.01964
1186.90 0.01963
1187.00 0.01962
1187.10 0.01961
1187.20 0.01960
1187.30 0.01959
1187.40 0.01958
1187.50 0.01957
1187.60 0.01956
1187.70 0.01955
1187.80 0.01954
1187.90 0.01953
1188.00 0.01952
1188.10 0.01951
1188.20 0.01950
1188.30 0.01949
1188.40 0.01948
1188.50 0.01947
1188.60 0.01946
1188.70 0.01945
1188.80 0.01944
1188.90 0.01943
1189.00 0.01942
1189.10 0.01941
1189.20 0.01940
1189.30 0.01939
1189.40 0.01938
1189.50 0.01937
1189.60 0.01937
1189.70 0.01936
1189.80 0.01935
1189.90 0.01934
1190.00 0.01933
1190.10 0.01932
1190.20 0.01931
1190.30 0.01930
1190.40 0.01929
1190.50 0.01928
1190.60 0.01927
1190.70 0.01926
1190.80 0.01925
1190.90 0.01924
1191.00 0.01923
1191.10 0.01922
1191.20 0.01921
1191.30 0.01920
1191.40 0.01919
1191.50 0.01918
1191.60 0.01917
1191.70 0.01916
1191.80 0.01915
1191.90 0.01914
1192.00 0.01913
1192.10 0.01912
1192.20 0.01911
1192.30 0.01910
1192.40 0.01909
1192.50 0.01908
1192.60 0.01907
1192.70 0.01906
1192.80 0.01905
1192.90 0.01904
1193.00 0.01902
1193.10 0.01901
1193.20 0.01900
1193.30 0.01899
1193.40 0.01898
1193.50 0.01897
1193.60 0.01896
1193.70 0.01895
1193.80 0.01894
1193.90 0.01893
1194.00 0.01892
1194.10 0.01891
1194.20 0.01890
1194.30 0.01889
1194.40 0.01888
1194.50 0.01887
1194.60 0.01886
1194.70 0.01885
1194.80 0.01884
1194.90 0.01883
1195.00 0.01882
1195.10 0.01881
1195.20 0.01880
1195.30 0.01879
1195.40 0.01878
1195.50 0.01877
1195.60 0.01875
1195.70 0.01874
1195.80 0.01873
1195.90 0.01872
1196.00 0.01871
1196.10 0.01870
1196.20 0.01869
1196.30 0.01868
1196.40 0.01867
1196.50 0.01866
1196.60 0.01865
1196.70 0.01864
1196.80 0.01863
1196.90 0.01861
1197.00 0.01860
1197.10 0.01859
1197.20 0.01858
1197.30 0.01857
1197.40 0.01856
1197.50 0.01855
1197.60 0.01854
1197.70 0.01853
1197.80 0.01852
1197.90 0.01850
1198.00 0.01849
1198.10 0.01848
1198.20 0.01847
1198.30 0.01846
1198.40 0.01845
1198.50 0.01844
1198.60 0.01843
1198.70 0.01842
1198.80 0.01840
1198.90 0.01839
1199.00 0.01838
1199.10 0.01837
1199.20 0.01836
1199.30 0.01835
1199.40 0.01834
1199.50 0.01832
1199.60 0.01831
1199.70 0.01830
1199.80 0.01829
1199.90 0.01828
1200.00 0.01827
1200.10 0.01826
1200.20 0.01824
1200.30 0.01823
1200.40 0.01822
1200.50 0.01821
1200.60 0.01820
1200.70 0.01819
1200.80 0.01817
1200.90 0.01816
1201.00 0.01815
1201.10 0.01814
1201.20 0.01813
1201.30 0.01811
1201.40 0.01810
1201.50 0.01809
1201.60 0.01808
1201.70 0.01807
1201.80 0.01805
1201.90 0.01804
1202.00 0.01803
1202.10 0.01802
1202.20 0.01801
1202.30 0.01799
1202.40 0.01798
1202.50 0.01797
1202.60 0.01796
1202.70 0.01795
1202.80 0.01793
1202.90 0.01792
1203.00 0.01791
1203.10 0.01790
1203.20 0.01788
1203.30 0.01787
1203.40 0.01786
1203.50 0.01785
1203.60 0.01783
1203.70 0.01782
1203.80 0.01781
1203.90 0.01780
1204.00 0.01778
1204.10 0.01777
1204.20 0.01776
1204.30 0.01775
1204.40 0.01773
1204.50 0.01772
1204.60 0.01771
1204.70 0.01769
1204.80 0.01768
1204.90 0.01767
1205.00 0.01766
1205.10 0.01764
1205.20 0.01763
1205.30 0.01762
1205.40 0.01760
1205.50 0.01759
1205.60 0.01758
1205.70 0.01757
1205.80 0.01755
1205.90 0.01754
1206.00 0.01753
1206.10 0.01751
1206.20 0.01750
1206.30 0.01749
1206.40 0.01747
1206.50 0.01746
1206.60 0.01745
1206.70 0.01743
1206.80 0.01742
1206.90 0.01741
1207.00 0.01739
1207.10 0.01738
1207.20 0.01737
1207.30 0.01735
1207.40 0.01734
1207.50 0.01733
1207.60 0.01731
1207.70 0.01730
1207.80 0.01729
1207.90 0.01727
1208.00 0.01726
1208.10 0.01724
1208.20 0.01723
1208.30 0.01722
1208.40 0.01720
1208.50 0.01719
1208.60 0.01718
1208.70 0.01716
1208.80 0.01715
1208.90 0.01713
1209.00 0.01712
1209.10 0.01711
1209.20 0.01709
1209.30 0.01708
1209.40 0.01706
1209.50 0.01705
1209.60 0.01704
1209.70 0.01702
1209.80 0.01701
1209.90 0.01699
1210.00 0.01698
1210.10 0.01697
1210.20 0.01695
1210.30 0.01694
1210.40 0.01692
1210.50 0.01691
1210.60 0.01689
1210.70 0.01688
1210.80 0.01687
1210.90 0.01685
1211.00 0.01684
1211.10 0.01682
1211.20 0.01681
1211.30 0.01679
1211.40 0.01678
1211.50 0.01677
1211.60 0.01675
1211.70 0.01674
1211.80 0.01672
1211.90 0.01671
1212.00 0.01669
1212.10 0.01668
1212.20 0.01666
1212.30 0.01665
1212.40 0.01663
1212.50 0.01662
1212.60 0.01660
1212.70 0.01659
1212.80 0.01657
1212.90 0.01656
1213.00 0.01655
1213.10 0.01653
1213.20 0.01652
1213.30 0.01650
1213.40 0.01649
1213.50 0.01647
1213.60 0.01646
1213.70 0.01644
1213.80 0.01643
1213.90 0.01641
1214.00 0.01640
1214.10 0.01638
1214.20 0.01637
1214.30 0.01635
1214.40 0.01634
1214.50 0.01632
1214.60 0.01631
1214.70 0.01629
1214.80 0.01628
1214.90 0.01626
1215.00 0.01624
1215.10 0.01623
1215.20 0.01621
1215.30 0.01620
1215.40 0.01618
1215.50 0.01617
1215.60 0.01615
1215.70 0.01614
1215.80 0.01612
1215.90 0.01611
1216.00 0.01609
1216.10 0.01608
1216.20 0.01606
1216.30 0.01605
1216.40 0.01603
1216.50 0.01601
1216.60 0.01600
1216.70 0.01598
1216.80 0.01597
1216.90 0.01595
1217.00 0.01594
1217.10 0.01592
1217.20 0.01591
1217.30 0.01589
1217.40 0.01588
1217.50 0.01586
1217.60 0.01584
1217.70 0.01583
1217.80 0.01581
1217.90 0.01580
1218.00 0.01578
1218.10 0.01577
1218.20 0.01575
1218.30 0.01573
1218.40 0.01572
1218.50 0.01570
1218.60 0.01569
1218.70 0.01567
1218.80 0.01566
1218.90 0.01564
1219.00 0.01562
1219.10 0.01561
1219.20 0.01559
1219.30 0.01558
1219.40 0.01556
1219.50 0.01555
1219.60 0.01553
1219.70 0.01551
1219.80 0.01550
1219.90 0.01548
1220.00 0.01547
1220.10 0.01545
1220.20 0.01543
1220.30 0.01542
1220.40 0.01540
1220.50 0.01539
1220.60 0.01537
1220.70 0.01536
1220.80 0.01534
1220.90 0.01532
1221.00 0.01531
1221.10 0.01529
1221.20 0.01528
1221.30 0.01526
1221.40 0.01524
1221.50 0.01523
1221.60 0.01521
1221.70 0.01520
1221.80 0.01518
1221.90 0.01516
1222.00 0.01515
1222.10 0.01513
1222.20 0.01512
1222.30 0.01510
1222.40 0.01508
1222.50 0.01507
1222.60 0.01505
1222.70 0.01504
1222.80 0.01502
1222.90 0.01500
1223.00 0.01499
1223.10 0.01497
1223.20 0.01496
1223.30 0.01494
1223.40 0.01492
1223.50 0.01491
1223.60 0.01489
1223.70 0.01488
1223.80 0.01486
1223.90 0.01484
1224.00 0.01483
1224.10 0.01481
1224.20 0.01480
1224.30 0.01478
1224.40 0.01477
1224.50 0.01475
1224.60 0.01473
1224.70 0.01472
1224.80 0.01470
1224.90 0.01469
1225.00 0.01467
1225.10 0.01465
1225.20 0.01464
1225.30 0.01462
1225.40 0.01461
1225.50 0.01459
1225.60 0.01457
1225.70 0.01456
1225.80 0.01454
1225.90 0.01453
1226.00 0.01451
1226.10 0.01449
1226.20 0.01448
1226.30 0.01446
1226.40 0.01445
1226.50 0.01443
1226.60 0.01441
1226.70 0.01440
1226.80 0.01438
1226.90 0.01437
1227.00 0.01435
1227.10 0.01434
1227.20 0.01432
1227.30 0.01430
1227.40 0.01429
1227.50 0.01427
1227.60 0.01426
1227.70 0.01424
1227.80 0.01422
1227.90 0.01421
1228.00 0.01419
1228.10 0.01418
1228.20 0.01416
1228.30 0.01415
1228.40 0.01413
1228.50 0.01411
1228.60 0.01410
1228.70 0.01408
1228.80 0.01407
1228.90 0.01405
1229.00 0.01404
1229.10 0.01402
1229.20 0.01401
1229.30 0.01399
1229.40 0.01397
1229.50 0.01396
1229.60 0.01394
1229.70 0.01393
1229.80 0.01391
1229.90 0.01390
1230.00 0.01388
1230.10 0.01387
1230.20 0.01385
1230.30 0.01383
1230.40 0.01382
1230.50 0.01380
1230.60 0.01379
1230.70 0.01377
1230.80 0.01376
1230.90 0.01374
1231.00 0.01373
1231.10 0.01371
1231.20 0.01370
1231.30 0.01368
1231.40 0.01367
1231.50 0.01365
1231.60 0.01363
1231.70 0.01362
1231.80 0.01360
1231.90 0.01359
1232.00 0.01357
1232.10 0.01356
1232.20 0.01354
1232.30 0.01353
1232.40 0.01351
1232.50 0.01350
1232.60 0.01348
1232.70 0.01347
1232.80 0.01345
1232.90 0.01344
1233.00 0.01342
1233.10 0.01341
1233.20 0.01339
1233.30 0.01338
1233.40 0.01336
1233.50 0.01335
1233.60 0.01333
1233.70 0.01332
1233.80 0.01330
1233.90 0.01329
1234.00 0.01327
1234.10 0.01326
1234.20 0.01325
1234.30 0.01323
1234.40 0.01322
1234.50 0.01320
1234.60 0.01319
1234.70 0.01317
1234.80 0.01316
1234.90 0.01314
1235.00 0.01313
1235.10 0.01311
1235.20 0.01310
1235.30 0.01308
1235.40 0.01307
1235.50 0.01306
1235.60 0.01304
1235.70 0.01303
1235.80 0.01301
1235.90 0.01300
1236.00 0.01298
1236.10 0.01297
1236.20 0.01296
1236.30 0.01294
1236.40 0.01293
1236.50 0.01291
1236.60 0.01290
1236.70 0.01289
1236.80 0.01287
1236.90 0.01286
1237.00 0.01284
1237.10 0.01283
1237.20 0.01282
1237.30 0.01280
1237.40 0.01279
1237.50 0.01277
1237.60 0.01276
1237.70 0.01275
1237.80 0.01273
1237.90 0.01272
1238.00 0.01270
1238.10 0.01269
1238.20 0.01268
1238.30 0.01266
1238.40 0.01265
1238.50 0.01264
1238.60 0.01262
1238.70 0.01261
1238.80 0.01260
1238.90 0.01258
1239.00 0.01257
1239.10 0.01256
1239.20 0.01254
1239.30 0.01253
1239.40 0.01252
1239.50 0.01250
1239.60 0.01249
1239.70 0.01248
1239.80 0.01246
1239.90 0.01245
1240.00 0.01244
1240.10 0.01242
1240.20 0.01241
1240.30 0.01240
1240.40 0.01238
1240.50 0.01237
1240.60 0.01236
1240.70 0.01234
1240.80 0.01233
1240.90 0.01232
1241.00 0.01231
1241.10 0.01229
1241.20 0.01228
1241.30 0.01227
1241.40 0.01226
1241.50 0.01224
1241.60 0.01223
1241.70 0.01222
1241.80 0.01220
1241.90 0.01219
1242.00 0.01218
1242.10 0.01217
1242.20 0.01215
1242.30 0.01214
1242.40 0.01213
1242.50 0.01212
1242.60 0.01211
1242.70 0.01209
1242.80 0.01208
1242.90 0.01207
1243.00 0.01206
1243.10 0.01204
1243.20 0.01203
1243.30 0.01202
1243.40 0.01201
1243.50 0.01200
1243.60 0.01198
1243.70 0.01197
1243.80 0.01196
1243.90 0.01195
1244.00 0.01194
1244.10 0.01192
1244.20 0.01191
1244.30 0.01190
1244.40 0.01189
1244.50 0.01188
1244.60 0.01187
1244.70 0.01185
1244.80 0.01184
1244.90 0.01183
1245.00 0.01182
1245.10 0.01181
1245.20 0.01180
1245.30 0.01179
1245.40 0.01177
1245.50 0.01176
1245.60 0.01175
1245.70 0.01174
1245.80 0.01173
1245.90 0.01172
1246.00 0.01171
1246.10 0.01170
1246.20 0.01168
1246.30 0.01167
1246.40 0.01166
1246.50 0.01165
1246.60 0.01164
1246.70 0.01163
1246.80 0.01162
1246.90 0.01161
1247.00 0.01160
1247.10 0.01159
1247.20 0.01158
1247.30 0.01157
1247.40 0.01155
1247.50 0.01154
1247.60 0.01153
1247.70 0.01152
1247.80 0.01151
1247.90 0.01150
1248.00 0.01149
1248.10 0.01148
1248.20 0.01147
1248.30 0.01146
1248.40 0.01145
1248.50 0.01144
1248.60 0.01143
1248.70 0.01142
1248.80 0.01141
1248.90 0.01140
1249.00 0.01139
1249.10 0.01138
1249.20 0.01137
1249.30 0.01136
1249.40 0.01135
1249.50 0.01134
1249.60 0.01133
1249.70 0.01132
1249.80 0.01131
1249.90 0.01130
1250.00 0.01129
1250.10 0.01128
1250.20 0.01127
1250.30 0.01126
1250.40 0.01125
1250.50 0.01124
1250.60 0.01123
1250.70 0.01122
1250.80 0.01121
1250.90 0.01120
1251.00 0.01119
1251.10 0.01118
1251.20 0.01117
1251.30 0.01116
1251.40 0.01116
1251.50 0.01115
1251.60 0.01114
1251.70 0.01113
1251.80 0.01112
1251.90 0.01111
1252.00 0.01110
1252.10 0.01109
1252.20 0.01108
1252.30 0.01107
1252.40 0.01106
1252.50 0.01106
1252.60 0.01105
1252.70 0.01104
1252.80 0.01103
1252.90 0.01102
1253.00 0.01101
1253.10 0.01100
1253.20 0.01099
1253.30 0.01098
1253.40 0.01098
1253.50 0.01097
1253.60 0.01096
1253.70 0.01095
1253.80 0.01094
1253.90 0.01093
1254.00 0.01092
1254.10 0.01092
1254.20 0.01091
1254.30 0.01090
1254.40 0.01089
1254.50 0.01088
1254.60 0.01087
1254.70 0.01087
1254.80 0.01086
1254.90 0.01085
1255.00 0.01084
1255.10 0.01083
1255.20 0.01083
1255.30 0.01082
1255.40 0.01081
1255.50 0.01080
1255.60 0.01079
1255.70 0.01079
1255.80 0.01078
1255.90 0.01077
1256.00 0.01076
1256.10 0.01075
1256.20 0.01075
1256.30 0.01074
1256.40 0.01073
1256.50 0.01072
1256.60 0.01071
1256.70 0.01071
1256.80 0.01070
1256.90 0.01069
1257.00 0.01068
1257.10 0.01068
1257.20 0.01067
1257.30 0.01066
1257.40 0.01065
1257.50 0.01065
1257.60 0.01064
1257.70 0.01063
1257.80 0.01062
1257.90 0.01062
1258.00 0.01061
1258.10 0.01060
1258.20 0.01059
1258.30 0.01059
1258.40 0.01058
1258.50 0.01057
1258.60 0.01057
1258.70 0.01056
1258.80 0.01055
1258.90 0.01054
1259.00 0.01054
1259.10 0.01053
1259.20 0.01052
1259.30 0.01052
1259.40 0.01051
1259.50 0.01050
1259.60 0.01050
1259.70 0.01049
1259.80 0.01048
1259.90 0.01047
1260.00 0.01047
1260.10 0.01046
1260.20 0.01045
1260.30 0.01045
1260.40 0.01044
1260.50 0.01043
1260.60 0.01043
1260.70 0.01042
1260.80 0.01041
1260.90 0.01041
1261.00 0.01040
1261.10 0.01039
1261.20 0.01039
1261.30 0.01038
1261.40 0.01037
1261.50 0.01037
1261.60 0.01036
1261.70 0.01035
1261.80 0.01035
1261.90 0.01034
1262.00 0.01033
1262.10 0.01033
1262.20 0.01032
1262.30 0.01032
1262.40 0.01031
1262.50 0.01030
1262.60 0.01030
1262.70 0.01029
1262.80 0.01028
1262.90 0.01028
1263.00 0.01027
1263.10 0.01027
1263.20 0.01026
1263.30 0.01025
1263.40 0.01025
1263.50 0.01024
1263.60 0.01023
1263.70 0.01023
1263.80 0.01022
1263.90 0.01022
1264.00 0.01021
1264.10 0.01020
1264.20 0.01020
1264.30 0.01019
1264.40 0.01019
1264.50 0.01018
1264.60 0.01017
1264.70 0.01017
1264.80 0.01016
1264.90 0.01016
1265.00 0.01015
1265.10 0.01014
1265.20 0.01014
1265.30 0.01013
1265.40 0.01013
1265.50 0.01012
1265.60 0.01011
1265.70 0.01011
1265.80 0.01010
1265.90 0.01010
1266.00 0.01009
1266.10 0.01008
1266.20 0.01008
1266.30 0.01007
1266.40 0.01007
1266.50 0.01006
1266.60 0.01006
1266.70 0.01005
1266.80 0.01004
1266.90 0.01004
1267.00 0.01003
1267.10 0.01003
1267.20 0.01002
1267.30 0.01002
1267.40 0.01001
1267.50 0.01000
1267.60 0.01000
1267.70 0.00999
1267.80 0.00999
1267.90 0.00998
1268.00 0.00998
1268.10 0.00997
1268.20 0.00997
1268.30 0.00996
1268.40 0.00995
1268.50 0.00995
1268.60 0.00994
1268.70 0.00994
1268.80 0.00993
1268.90 0.00993
1269.00 0.00992
1269.10 0.00992
1269.20 0.00991
1269.30 0.00990
1269.40 0.00990
1269.50 0.00989
1269.60 0.00989
1269.70 0.00988
1269.80 0.00988
1269.90 0.00987
1270.00 0.00987
1270.10 0.00986
1270.20 0.00985
1270.30 0.00985
1270.40 0.00984
1270.50 0.00984
1270.60 0.00983
1270.70 0.00983
1270.80 0.00982
1270.90 0.00982
1271.00 0.00981
1271.10 0.00981
1271.20 0.00980
1271.30 0.00979
1271.40 0.00979
1271.50 0.00978
1271.60 0.00978
1271.70 0.00977
1271.80 0.00977
1271.90 0.00976
1272.00 0.00976
1272.10 0.00975
1272.20 0.00975
1272.30 0.00974
1272.40 0.00973
1272.50 0.00973
1272.60 0.00972
1272.70 0.00972
1272.80 0.00971
1272.90 0.00971
1273.00 0.00970
1273.10 0.00970
1273.20 0.00969
1273.30 0.00969
1273.40 0.00968
1273.50 0.00967
1273.60 0.00967
1273.70 0.00966
1273.80 0.00966
1273.90 0.00965
1274.00 0.00965
1274.10 0.00964
1274.20 0.00964
1274.30 0.00963
1274.40 0.00963
1274.50 0.00962
1274.60 0.00961
1274.70 0.00961
1274.80 0.00960
1274.90 0.00960
1275.00 0.00959
1275.10 0.00959
1275.20 0.00958
1275.30 0.00958
1275.40 0.00957
1275.50 0.00956
1275.60 0.00956
1275.70 0.00955
1275.80 0.00955
1275.90 0.00954
1276.00 0.00954
1276.10 0.00953
1276.20 0.00953
1276.30 0.00952
1276.40 0.00951
1276.50 0.00951
1276.60 0.00950
1276.70 0.00950
1276.80 0.00949
1276.90 0.00949
1277.00 0.00948
1277.10 0.00948
1277.20 0.00947
1277.30 0.00946
1277.40 0.00946
1277.50 0.00945
1277.60 0.00945
1277.70 0.00944
1277.80 0.00944
1277.90 0.00943
1278.00 0.00942
1278.10 0.00942
1278.20 0.00941
1278.30 0.00941
1278.40 0.00940
1278.50 0.00940
1278.60 0.00939
1278.70 0.00938
1278.80 0.00938
1278.90 0.00937
1279.00 0.00937
1279.10 0.00936
1279.20 0.00935
1279.30 0.00935
1279.40 0.00934
1279.50 0.00934
1279.60 0.00933
1279.70 0.00933
1279.80 0.00932
1279.90 0.00931
1280.00 0.00931
1280.10 0.00930
1280.20 0.00930
1280.30 0.00929
1280.40 0.00928
1280.50 0.00928
1280.60 0.00927
1280.70 0.00927
1280.80 0.00926
1280.90 0.00925
1281.00 0.00925
1281.10 0.00924
1281.20 0.00924
1281.30 0.00923
1281.40 0.00922
1281.50 0.00922
1281.60 0.00921
1281.70 0.00921
1281.80 0.00920
1281.90 0.00919
1282.00 0.00919
1282.10 0.00918
1282.20 0.00917
1282.30 0.00917
1282.40 0.00916
1282.50 0.00916
1282.60 0.00915
1282.70 0.00914
1282.80 0.00914
1282.90 0.00913
1283.00 0.00912
1283.10 0.00912
1283.20 0.00911
1283.30 0.00911
1283.40 0.00910
1283.50 0.00909
1283.60 0.00909
1283.70 0.00908
1283.80 0.00907
1283.90 0.00907
1284.00 0.00906
1284.10 0.00905
1284.20 0.00905
1284.30 0.00904
1284.40 0.00903
1284.50 0.00903
1284.60 0.00902
1284.70 0.00901
1284.80 0.00901
1284.90 0.00900
1285.00 0.00899
1285.10 0.00899
1285.20 0.00898
1285.30 0.00897
1285.40 0.00897
1285.50 0.00896
1285.60 0.00895
1285.70 0.00895
1285.80 0.00894
1285.90 0.00893
1286.00 0.00893
1286.10 0.00892
1286.20 0.00891
1286.30 0.00891
1286.40 0.00890
1286.50 0.00889
1286.60 0.00889
1286.70 0.00888
1286.80 0.00887
1286.90 0.00887
1287.00 0.00886
1287.10 0.00885
1287.20 0.00884
1287.30 0.00884
1287.40 0.00883
1287.50 0.00882
1287.60 0.00882
1287.70 0.00881
1287.80 0.00880
1287.90 0.00880
1288.00 0.00879
1288.10 0.00878
1288.20 0.00877
1288.30 0.00877
1288.40 0.00876
1288.50 0.00875
1288.60 0.00875
1288.70 0.00874
1288.80 0.00873
1288.90 0.00872
1289.00 0.00872
1289.10 0.00871
1289.20 0.00870
1289.30 0.00869
1289.40 0.00869
1289.50 0.00868
1289.60 0.00867
1289.70 0.00866
1289.80 0.00866
1289.90 0.00865
1290.00 0.00864
1290.10 0.00863
1290.20 0.00863
1290.30 0.00862
1290.40 0.00861
1290.50 0.00860
1290.60 0.00860
1290.70 0.00859
1290.80 0.00858
1290.90 0.00857
1291.00 0.00857
1291.10 0.00856
1291.20 0.00855
1291.30 0.00854
1291.40 0.00854
1291.50 0.00853
1291.60 0.00852
1291.70 0.00851
1291.80 0.00850
1291.90 0.00850
1292.00 0.00849
1292.10 0.00848
1292.20 0.00847
1292.30 0.00847
1292.40 0.00846
1292.50 0.00845
1292.60 0.00844
1292.70 0.00843
1292.80 0.00843
1292.90 0.00842
1293.00 0.00841
1293.10 0.00840
1293.20 0.00839
1293.30 0.00839
1293.40 0.00838
1293.50 0.00837
1293.60 0.00836
1293.70 0.00835
1293.80 0.00835
1293.90 0.00834
1294.00 0.00833
1294.10 0.00832
1294.20 0.00831
1294.30 0.00830
1294.40 0.00830
1294.50 0.00829
1294.60 0.00828
1294.70 0.00827
1294.80 0.00826
1294.90 0.00826
1295.00 0.00825
1295.10 0.00824
1295.20 0.00823
1295.30 0.00822
1295.40 0.00821
1295.50 0.00821
1295.60 0.00820
1295.70 0.00819
1295.80 0.00818
1295.90 0.00817
1296.00 0.00816
1296.10 0.00816
1296.20 0.00815
1296.30 0.00814
1296.40 0.00813
1296.50 0.00812
1296.60 0.00811
1296.70 0.00810
1296.80 0.00810
1296.90 0.00809
1297.00 0.00808
1297.10 0.00807
1297.20 0.00806
1297.30 0.00805
1297.40 0.00804
1297.50 0.00804
1297.60 0.00803
1297.70 0.00802
1297.80 0.00801
1297.90 0.00800
1298.00 0.00799
1298.10 0.00798
1298.20 0.00797
1298.30 0.00797
1298.40 0.00796
1298.50 0.00795
1298.60 0.00794
1298.70 0.00793
1298.80 0.00792
1298.90 0.00791
1299.00 0.00790
1299.10 0.00790
1299.20 0.00789
1299.30 0.00788
1299.40 0.00787
1299.50 0.00786
1299.60 0.00785
1299.70 0.00784
1299.80 0.00783
1299.90 0.00782
1300.00 0.00782
1300.10 0.00781
1300.20 0.00780
1300.30 0.00779
1300.40 0.00778
1300.50 0.00777
1300.60 0.00776
1300.70 0.00775
1300.80 0.00774
1300.90 0.00773
1301.00 0.00773
1301.10 0.00772
1301.20 0.00771
1301.30 0.00770
1301.40 0.00769
1301.50 0.00768
1301.60 0.00767
1301.70 0.00766
1301.80 0.00765
1301.90 0.00764
1302.00 0.00763
1302.10 0.00763
1302.20 0.00762
1302.30 0.00761
1302.40 0.00760
1302.50 0.00759
1302.60 0.00758
1302.70 0.00757
1302.80 0.00756
1302.90 0.00755
1303.00 0.00754
1303.10 0.00753
1303.20 0.00752
1303.30 0.00752
1303.40 0.00751
1303.50 0.00750
1303.60 0.00749
1303.70 0.00748
1303.80 0.00747
1303.90 0.00746
1304.00 0.00745
1304.10 0.00744
1304.20 0.00743
1304.30 0.00742
1304.40 0.00741
1304.50 0.00740
1304.60 0.00740
1304.70 0.00739
1304.80 0.00738
1304.90 0.00737
1305.00 0.00736
1305.10 0.00735
1305.20 0.00734
1305.30 0.00733
1305.40 0.00732
1305.50 0.00731
1305.60 0.00730
1305.70 0.00729
1305.80 0.00728
1305.90 0.00727
1306.00 0.00727
1306.10 0.00726
1306.20 0.00725
1306.30 0.00724
1306.40 0.00723
1306.50 0.00722
1306.60 0.00721
1306.70 0.00720
1306.80 0.00719
1306.90 0.00718
1307.00 0.00717
1307.10 0.00716
1307.20 0.00715
1307.30 0.00714
1307.40 0.00713
1307.50 0.00713
1307.60 0.00712
1307.70 0.00711
1307.80 0.00710
1307.90 0.00709
1308.00 0.00708
1308.10 0.00707
1308.20 0.00706
1308.30 0.00705
1308.40 0.00704
1308.50 0.00703
1308.60 0.00702
1308.70 0.00701
1308.80 0.00700
1308.90 0.00699
1309.00 0.00699
1309.10 0.00698
1309.20 0.00697
1309.30 0.00696
1309.40 0.00695
1309.50 0.00694
1309.60 0.00693
1309.70 0.00692
1309.80 0.00691
1309.90 0.00690
1310.00 0.00689
1310.10 0.00688
1310.20 0.00687
1310.30 0.00686
1310.40 0.00686
1310.50 0.00685
1310.60 0.00684
1310.70 0.00683
1310.80 0.00682
1310.90 0.00681
1311.00 0.00680
1311.10 0.00679
1311.20 0.00678
1311.30 0.00677
1311.40 0.00676
1311.50 0.00675
1311.60 0.00674
1311.70 0.00674
1311.80 0.00673
1311.90 0.00672
1312.00 0.00671
1312.10 0.00670
1312.20 0.00669
1312.30 0.00668
1312.40 0.00667
1312.50 0.00666
1312.60 0.00665
1312.70 0.00664
1312.80 0.00663
1312.90 0.00663
1313.00 0.00662
1313.10 0.00661
1313.20 0.00660
1313.30 0.00659
1313.40 0.00658
1313.50 0.00657
1313.60 0.00656
1313.70 0.00655
1313.80 0.00654
1313.90 0.00653
1314.00 0.00653
1314.10 0.00652
1314.20 0.00651
1314.30 0.00650
1314.40 0.00649
1314.50 0.00648
1314.60 0.00647
1314.70 0.00646
1314.80 0.00645
1314.90 0.00644
1315.00 0.00644
1315.10 0.00643
1315.20 0.00642
1315.30 0.00641
1315.40 0.00640
1315.50 0.00639
1315.60 0.00638
1315.70 0.00637
1315.80 0.00637
1315.90 0.00636
1316.00 0.00635
1316.10 0.00634
1316.20 0.00633
1316.30 0.00632
1316.40 0.00631
1316.50 0.00630
1316.60 0.00629
1316.70 0.00629
1316.80 0.00628
1316.90 0.00627
1317.00 0.00626
1317.10 0.00625
1317.20 0.00624
1317.30 0.00623
1317.40 0.00623
1317.50 0.00622
1317.60 0.00621
1317.70 0.00620
1317.80 0.00619
1317.90 0.00618
1318.00 0.00617
1318.10 0.00617
1318.20 0.00616
1318.30 0.00615
1318.40 0.00614
1318.50 0.00613
1318.60 0.00612
1318.70 0.00611
1318.80 0.00611
1318.90 0.00610
1319.00 0.00609
1319.10 0.00608
1319.20 0.00607
1319.30 0.00606
1319.40 0.00606
1319.50 0.00605
1319.60 0.00604
1319.70 0.00603
1319.80 0.00602
1319.90 0.00602
1320.00 0.00601
1320.10 0.00600
1320.20 0.00599
1320.30 0.00598
1320.40 0.00597
1320.50 0.00597
1320.60 0.00596
1320.70 0.00595
1320.80 0.00594
1320.90 0.00593
1321.00 0.00593
1321.10 0.00592
1321.20 0.00591
1321.30 0.00590
1321.40 0.00589
1321.50 0.00589
1321.60 0.00588
1321.70 0.00587
1321.80 0.00586
1321.90 0.00585
1322.00 0.00585
1322.10 0.00584
1322.20 0.00583
1322.30 0.00582
1322.40 0.00582
1322.50 0.00581
1322.60 0.00580
1322.70 0.00579
1322.80 0.00578
1322.90 0.00578
1323.00 0.00577
1323.10 0.00576
1323.20 0.00575
1323.30 0.00575
1323.40 0.00574
1323.50 0.00573
1323.60 0.00572
1323.70 0.00572
1323.80 0.00571
1323.90 0.00570
1324.00 0.00569
1324.10 0.00569
1324.20 0.00568
1324.30 0.00567
1324.40 0.00566
1324.50 0.00566
1324.60 0.00565
1324.70 0.00564
1324.80 0.00563
1324.90 0.00563
1325.00 0.00562
1325.10 0.00561
1325.20 0.00560
1325.30 0.00560
1325.40 0.00559
1325.50 0.00558
1325.60 0.00558
1325.70 0.00557
1325.80 0.00556
1325.90 0.00555
1326.00 0.00555
1326.10 0.00554
1326.20 0.00553
1326.30 0.00553
1326.40 0.00552
1326.50 0.00551
1326.60 0.00551
1326.70 0.00550
1326.80 0.00549
1326.90 0.00549
1327.00 0.00548
1327.10 0.00547
1327.20 0.00546
1327.30 0.00546
1327.40 0.00545
1327.50 0.00544
1327.60 0.00544
1327.70 0.00543
1327.80 0.00542
1327.90 0.00542
1328.00 0.00541
1328.10 0.00540
1328.20 0.00540
1328.30 0.00539
1328.40 0.00538
1328.50 0.00538
1328.60 0.00537
1328.70 0.00537
1328.80 0.00536
1328.90 0.00535
1329.00 0.00535
1329.10 0.00534
1329.20 0.00533
1329.30 0.00533
1329.40 0.00532
1329.50 0.00531
1329.60 0.00531
1329.70 0.00530
1329.80 0.00530
1329.90 0.00529
1330.00 0.00528
1330.10 0.00528
1330.20 0.00527
1330.30 0.00526
1330.40 0.00526
1330.50 0.00525
1330.60 0.00525
1330.70 0.00524
1330.80 0.00523
1330.90 0.00523
1331.00 0.00522
1331.10 0.00522
1331.20 0.00521
1331.30 0.00520
1331.40 0.00520
1331.50 0.00519
1331.60 0.00519
1331.70 0.00518
1331.80 0.00518
1331.90 0.00517
1332.00 0.00516
1332.10 0.00516
1332.20 0.00515
1332.30 0.00515
1332.40 0.00514
1332.50 0.00514
1332.60 0.00513
1332.70 0.00512
1332.80 0.00512
1332.90 0.00511
1333.00 0.00511
1333.10 0.00510
1333.20 0.00510
1333.30 0.00509
1333.40 0.00509
1333.50 0.00508
1333.60 0.00507
1333.70 0.00507
1333.80 0.00506
1333.90 0.00506
1334.00 0.00505
1334.10 0.00505
1334.20 0.00504
1334.30 0.00504
1334.40 0.00503
1334.50 0.00503
1334.60 0.00502
1334.70 0.00502
1334.80 0.00501
1334.90 0.00501
1335.00 0.00500
1335.10 0.00500
1335.20 0.00499
1335.30 0.00499
1335.40 0.00498
1335.50 0.00498
1335.60 0.00497
1335.70 0.00497
1335.80 0.00496
1335.90 0.00496
1336.00 0.00495
1336.10 0.00495
1336.20 0.00494
1336.30 0.00494
1336.40 0.00493
1336.50 0.00493
1336.60 0.00492
1336.70 0.00492
1336.80 0.00491
1336.90 0.00491
1337.00 0.00490
1337.10 0.00490
1337.20 0.00490
1337.30 0.00489
1337.40 0.00489
1337.50 0.00488
1337.60 0.00488
1337.70 0.00487
1337.80 0.00487
1337.90 0.00486
1338.00 0.00486
1338.10 0.00485
1338.20 0.00485
1338.30 0.00485
1338.40 0.00484
1338.50 0.00484
1338.60 0.00483
1338.70 0.00483
1338.80 0.00482
1338.90 0.00482
1339.00 0.00482
1339.10 0.00481
1339.20 0.00481
1339.30 0.00480
1339.40 0.00480
1339.50 0.00479
1339.60 0.00479
1339.70 0.00479
1339.80 0.00478
1339.90 0.00478
1340.00 0.00477
1340.10 0.00477
1340.20 0.00477
1340.30 0.00476
1340.40 0.00476
1340.50 0.00475
1340.60 0.00475
1340.70 0.00475
1340.80 0.00474
1340.90 0.00474
1341.00 0.00473
1341.10 0.00473
1341.20 0.00473
1341.30 0.00472
1341.40 0.00472
1341.50 0.00471
1341.60 0.00471
1341.70 0.00471
1341.80 0.00470
1341.90 0.00470
1342.00 0.00470
1342.10 0.00469
1342.20 0.00469
1342.30 0.00469
1342.40 0.00468
1342.50 0.00468
1342.60 0.00467
1342.70 0.00467
1342.80 0.00467
1342.90 0.00466
1343.00 0.00466
1343.10 0.00466
1343.20 0.00465
1343.30 0.00465
1343.40 0.00465
1343.50 0.00464
1343.60 0.00464
1343.70 0.00464
1343.80 0.00463
1343.90 0.00463
1344.00 0.00463
1344.10 0.00462
1344.20 0.00462
1344.30 0.00462
1344.40 0.00461
1344.50 0.00461
1344.60 0.00461
1344.70 0.00460
1344.80 0.00460
1344.90 0.00460
1345.00 0.00459
1345.10 0.00459
1345.20 0.00459
1345.30 0.00458
1345.40 0.00458
1345.50 0.00458
1345.60 0.00457
1345.70 0.00457
1345.80 0.00457
1345.90 0.00456
1346.00 0.00456
1346.10 0.00456
1346.20 0.00456
1346.30 0.00455
1346.40 0.00455
1346.50 0.00455
1346.60 0.00454
1346.70 0.00454
1346.80 0.00454
1346.90 0.00453
1347.00 0.00453
1347.10 0.00453
1347.20 0.00453
1347.30 0.00452
1347.40 0.00452
1347.50 0.00452
1347.60 0.00451
1347.70 0.00451
1347.80 0.00451
1347.90 0.00451
1348.00 0.00450
1348.10 0.00450
1348.20 0.00450
1348.30 0.00449
1348.40 0.00449
1348.50 0.00449
1348.60 0.00449
1348.70 0.00448
1348.80 0.00448
1348.90 0.00448
1349.00 0.00448
1349.10 0.00447
1349.20 0.00447
1349.30 0.00447
1349.40 0.00447
1349.50 0.00446
1349.60 0.00446
1349.70 0.00446
1349.80 0.00445
1349.90 0.00445
1350.00 0.00445
1350.10 0.00445
1350.20 0.00444
1350.30 0.00444
1350.40 0.00444
1350.50 0.00444
1350.60 0.00443
1350.70 0.00443
1350.80 0.00443
1350.90 0.00443
1351.00 0.00442
1351.10 0.00442
1351.20 0.00442
1351.30 0.00442
1351.40 0.00442
1351.50 0.00441
1351.60 0.00441
1351.70 0.00441
1351.80 0.00441
1351.90 0.00440
1352.00 0.00440
1352.10 0.00440
1352.20 0.00440
1352.30 0.00439
1352.40 0.00439
1352.50 0.00439
1352.60 0.00439
1352.70 0.00438
1352.80 0.00438
1352.90 0.00438
1353.00 0.00438
1353.10 0.00438
1353.20 0.00437
1353.30 0.00437
1353.40 0.00437
1353.50 0.00437
1353.60 0.00436
1353.70 0.00436
1353.80 0.00436
1353.90 0.00436
1354.00 0.00436
1354.10 0.00435
1354.20 0.00435
1354.30 0.00435
1354.40 0.00435
1354.50 0.00434
1354.60 0.00434
1354.70 0.00434
1354.80 0.00434
1354.90 0.00434
1355.00 0.00433
1355.10 0.00433
1355.20 0.00433
1355.30 0.00433
1355.40 0.00433
1355.50 0.00432
1355.60 0.00432
1355.70 0.00432
1355.80 0.00432
1355.90 0.00432
1356.00 0.00431
1356.10 0.00431
1356.20 0.00431
1356.30 0.00431
1356.40 0.00431
1356.50 0.00430
1356.60 0.00430
1356.70 0.00430
1356.80 0.00430
1356.90 0.00430
1357.00 0.00429
1357.10 0.00429
1357.20 0.00429
1357.30 0.00429
1357.40 0.00429
1357.50 0.00428
1357.60 0.00428
1357.70 0.00428
1357.80 0.00428
1357.90 0.00428
1358.00 0.00427
1358.10 0.00427
1358.20 0.00427
1358.30 0.00427
1358.40 0.00427
1358.50 0.00426
1358.60 0.00426
1358.70 0.00426
1358.80 0.00426
1358.90 0.00426
1359.00 0.00425
1359.10 0.00425
1359.20 0.00425
1359.30 0.00425
1359.40 0.00425
1359.50 0.00425
1359.60 0.00424
1359.70 0.00424
1359.80 0.00424
1359.90 0.00424
1360.00 0.00424
1360.10 0.00423
1360.20 0.00423
1360.30 0.00423
1360.40 0.00423
1360.50 0.00423
1360.60 0.00422
1360.70 0.00422
1360.80 0.00422
1360.90 0.00422
1361.00 0.00422
1361.10 0.00422
1361.20 0.00421
1361.30 0.00421
1361.40 0.00421
1361.50 0.00421
1361.60 0.00421
1361.70 0.00420
1361.80 0.00420
1361.90 0.00420
1362.00 0.00420
1362.10 0.00420
1362.20 0.00420
1362.30 0.00419
1362.40 0.00419
1362.50 0.00419
1362.60 0.00419
1362.70 0.00419
1362.80 0.00418
1362.90 0.00418
1363.00 0.00418
1363.10 0.00418
1363.20 0.00418
1363.30 0.00418
1363.40 0.00417
1363.50 0.00417
1363.60 0.00417
1363.70 0.00417
1363.80 0.00417
1363.90 0.00417
1364.00 0.00416
1364.10 0.00416
1364.20 0.00416
1364.30 0.00416
1364.40 0.00416
1364.50 0.00415
1364.60 0.00415
1364.70 0.00415
1364.80 0.00415
1364.90 0.00415
1365.00 0.00415
1365.10 0.00414
1365.20 0.00414
1365.30 0.00414
1365.40 0.00414
1365.50 0.00414
1365.60 0.00413
1365.70 0.00413
1365.80 0.00413
1365.90 0.00413
1366.00 0.00413
1366.10 0.00413
1366.20 0.00412
1366.30 0.00412
1366.40 0.00412
1366.50 0.00412
1366.60 0.00412
1366.70 0.00412
1366.80 0.00411
1366.90 0.00411
1367.00 0.00411
1367.10 0.00411
1367.20 0.00411
1367.30 0.00410
1367.40 0.00410
1367.50 0.00410
1367.60 0.00410
1367.70 0.00410
1367.80 0.00410
1367.90 0.00409
1368.00 0.00409
1368.10 0.00409
1368.20 0.00409
1368.30 0.00409
1368.40 0.00408
1368.50 0.00408
1368.60 0.00408
1368.70 0.00408
1368.80 0.00408
1368.90 0.00408
1369.00 0.00407
1369.10 0.00407
1369.20 0.00407
1369.30 0.00407
1369.40 0.00407
1369.50 0.00406
1369.60 0.00406
1369.70 0.00406
1369.80 0.00406
1369.90 0.00406
1370.00 0.00406
1370.10 0.00405
1370.20 0.00405
1370.30 0.00405
1370.40 0.00405
1370.50 0.00405
1370.60 0.00404
1370.70 0.00404
1370.80 0.00404
1370.90 0.00404
1371.00 0.00404
1371.10 0.00404
1371.20 0.00403
1371.30 0.00403
1371.40 0.00403
1371.50 0.00403
1371.60 0.00403
1371.70 0.00402
1371.80 0.00402
1371.90 0.00402
1372.00 0.00402
1372.10 0.00402
1372.20 0.00401
1372.30 0.00401
1372.40 0.00401
1372.50 0.00401
1372.60 0.00401
1372.70 0.00401
1372.80 0.00400
1372.90 0.00400
1373.00 0.00400
1373.10 0.00400
1373.20 0.00400
1373.30 0.00399
1373.40 0.00399
1373.50 0.00399
1373.60 0.00399
1373.70 0.00399
1373.80 0.00398
1373.90 0.00398
1374.00 0.00398
1374.10 0.00398
1374.20 0.00398
1374.30 0.00397
1374.40 0.00397
1374.50 0.00397
1374.60 0.00397
1374.70 0.00397
1374.80 0.00397
1374.90 0.00396
1375.00 0.00396
1375.10 0.00396
1375.20 0.00396
1375.30 0.00396
1375.40 0.00395
1375.50 0.00395
1375.60 0.00395
1375.70 0.00395
1375.80 0.00395
1375.90 0.00394
1376.00 0.00394
1376.10 0.00394
1376.20 0.00394
1376.30 0.00394
1376.40 0.00393
1376.50 0.00393
1376.60 0.00393
1376.70 0.00393
1376.80 0.00393
1376.90 0.00392
1377.00 0.00392
1377.10 0.00392
1377.20 0.00392
1377.30 0.00392
1377.40 0.00391
1377.50 0.00391
1377.60 0.00391
1377.70 0.00391
1377.80 0.00390
1377.90 0.00390
1378.00 0.00390
1378.10 0.00390
1378.20 0.00390
1378.30 0.00389
1378.40 0.00389
1378.50 0.00389
1378.60 0.00389
1378.70 0.00389
1378.80 0.00388
1378.90 0.00388
1379.00 0.00388
1379.10 0.00388
1379.20 0.00388
1379.30 0.00387
1379.40 0.00387
1379.50 0.00387
1379.60 0.00387
1379.70 0.00386
1379.80 0.00386
1379.90 0.00386
1380.00 0.00386
1380.10 0.00386
1380.20 0.00385
1380.30 0.00385
1380.40 0.00385
1380.50 0.00385
1380.60 0.00385
1380.70 0.00384
1380.80 0.00384
1380.90 0.00384
1381.00 0.00384
1381.10 0.00383
1381.20 0.00383
1381.30 0.00383
1381.40 0.00383
1381.50 0.00383
1381.60 0.00382
1381.70 0.00382
1381.80 0.00382
1381.90 0.00382
1382.00 0.00381
1382.10 0.00381
1382.20 0.00381
1382.30 0.00381
1382.40 0.00381
1382.50 0.00380
1382.60 0.00380
1382.70 0.00380
1382.80 0.00380
1382.90 0.00379
1383.00 0.00379
1383.10 0.00379
1383.20 0.00379
1383.30 0.00379
1383.40 0.00378
1383.50 0.00378
1383.60 0.00378
1383.70 0.00378
1383.80 0.00377
1383.90 0.00377
1384.00 0.00377
1384.10 0.00377
1384.20 0.00376
1384.30 0.00376
1384.40 0.00376
1384.50 0.00376
1384.60 0.00375
1384.70 0.00375
1384.80 0.00375
1384.90 0.00375
1385.00 0.00375
1385.10 0.00374
1385.20 0.00374
1385.30 0.00374
1385.40 0.00374
1385.50 0.00373
1385.60 0.00373
1385.70 0.00373
1385.80 0.00373
1385.90 0.00372
1386.00 0.00372
1386.10 0.00372
1386.20 0.00372
1386.30 0.00371
1386.40 0.00371
1386.50 0.00371
1386.60 0.00371
1386.70 0.00370
1386.80 0.00370
1386.90 0.00370
1387.00 0.00370
1387.10 0.00369
1387.20 0.00369
1387.30 0.00369
1387.40 0.00369
1387.50 0.00368
1387.60 0.00368
1387.70 0.00368
1387.80 0.00368
1387.90 0.00367
1388.00 0.00367
1388.10 0.00367
1388.20 0.00367
1388.30 0.00366
1388.40 0.00366
1388.50 0.00366
1388.60 0.00366
1388.70 0.00365
1388.80 0.00365
1388.90 0.00365
1389.00 0.00365
1389.10 0.00364
1389.20 0.00364
1389.30 0.00364
1389.40 0.00364
1389.50 0.00363
1389.60 0.00363
1389.70 0.00363
1389.80 0.00363
1389.90 0.00362
1390.00 0.00362
1390.10 0.00362
1390.20 0.00362
1390.30 0.00361
1390.40 0.00361
1390.50 0.00361
1390.60 0.00360
1390.70 0.00360
1390.80 0.00360
1390.90 0.00360
1391.00 0.00359
1391.10 0.00359
1391.20 0.00359
1391.30 0.00359
1391.40 0.00358
1391.50 0.00358
1391.60 0.00358
1391.70 0.00358
1391.80 0.00357
1391.90 0.00357
1392.00 0.00357
1392.10 0.00356
1392.20 0.00356
1392.30 0.00356
1392.40 0.00356
1392.50 0.00355
1392.60 0.00355
1392.70 0.00355
1392.80 0.00355
1392.90 0.00354
1393.00 0.00354
1393.10 0.00354
1393.20 0.00353
1393.30 0.00353
1393.40 0.00353
1393.50 0.00353
1393.60 0.00352
1393.70 0.00352
1393.80 0.00352
1393.90 0.00351
1394.00 0.00351
1394.10 0.00351
1394.20 0.00351
1394.30 0.00350
1394.40 0.00350
1394.50 0.00350
1394.60 0.00349
1394.70 0.00349
1394.80 0.00349
1394.90 0.00349
1395.00 0.00348
1395.10 0.00348
1395.20 0.00348
1395.30 0.00347
1395.40 0.00347
1395.50 0.00347
1395.60 0.00347
1395.70 0.00346
1395.80 0.00346
1395.90 0.00346
1396.00 0.00345
1396.10 0.00345
1396.20 0.00345
1396.30 0.00345
1396.40 0.00344
1396.50 0.00344
1396.60 0.00344
1396.70 0.00343
1396.80 0.00343
1396.90 0.00343
1397.00 0.00342
1397.10 0.00342
1397.20 0.00342
1397.30 0.00342
1397.40 0.00341
1397.50 0.00341
1397.60 0.00341
1397.70 0.00340
1397.80 0.00340
1397.90 0.00340
1398.00 0.00339
1398.10 0.00339
1398.20 0.00339
1398.30 0.00338
1398.40 0.00338
1398.50 0.00338
1398.60 0.00338
1398.70 0.00337
1398.80 0.00337
1398.90 0.00337
1399.00 0.00336
1399.10 0.00336
1399.20 0.00336
1399.30 0.00335
1399.40 0.00335
1399.50 0.00335
1399.60 0.00334
1399.70 0.00334
1399.80 0.00334
1399.90 0.00334
1400.00 0.00333
1400.10 0.00333
1400.20 0.00333
1400.30 0.00332
1400.40 0.00332
1400.50 0.00332
1400.60 0.00331
1400.70 0.00331
1400.80 0.00331
1400.90 0.00330
1401.00 0.00330
1401.10 0.00330
1401.20 0.00329
1401.30 0.00329
1401.40 0.00329
1401.50 0.00328
1401.60 0.00328
1401.70 0.00328
1401.80 0.00327
1401.90 0.00327
1402.00 0.00327
1402.10 0.00326
1402.20 0.00326
1402.30 0.00326
1402.40 0.00325
1402.50 0.00325
1402.60 0.00325
1402.70 0.00324
1402.80 0.00324
1402.90 0.00324
1403.00 0.00323
1403.10 0.00323
1403.20 0.00323
1403.30 0.00322
1403.40 0.00322
1403.50 0.00322
1403.60 0.00321
1403.70 0.00321
1403.80 0.00321
1403.90 0.00320
1404.00 0.00320
1404.10 0.00320
1404.20 0.00319
1404.30 0.00319
1404.40 0.00319
1404.50 0.00318
1404.60 0.00318
1404.70 0.00318
1404.80 0.00317
1404.90 0.00317
1405.00 0.00317
1405.10 0.00316
1405.20 0.00316
1405.30 0.00316
1405.40 0.00315
1405.50 0.00315
1405.60 0.00315
1405.70 0.00314
1405.80 0.00314
1405.90 0.00314
1406.00 0.00313
1406.10 0.00313
1406.20 0.00313
1406.30 0.00312
1406.40 0.00312
1406.50 0.00311
1406.60 0.00311
1406.70 0.00311
1406.80 0.00310
1406.90 0.00310
1407.00 0.00310
1407.10 0.00309
1407.20 0.00309
1407.30 0.00309
1407.40 0.00308
1407.50 0.00308
1407.60 0.00308
1407.70 0.00307
1407.80 0.00307
1407.90 0.00307
1408.00 0.00306
1408.10 0.00306
1408.20 0.00305
1408.30 0.00305
1408.40 0.00305
1408.50 0.00304
1408.60 0.00304
1408.70 0.00304
1408.80 0.00303
1408.90 0.00303
1409.00 0.00303
1409.10 0.00302
1409.20 0.00302
1409.30 0.00301
1409.40 0.00301
1409.50 0.00301
1409.60 0.00300
1409.70 0.00300
1409.80 0.00300
1409.90 0.00299
1410.00 0.00299
1410.10 0.00298
1410.20 0.00298
1410.30 0.00298
1410.40 0.00297
1410.50 0.00297
1410.60 0.00297
1410.70 0.00296
1410.80 0.00296
1410.90 0.00296
1411.00 0.00295
1411.10 0.00295
1411.20 0.00294
1411.30 0.00294
1411.40 0.00294
1411.50 0.00293
1411.60 0.00293
1411.70 0.00293
1411.80 0.00292
1411.90 0.00292
1412.00 0.00291
1412.10 0.00291
1412.20 0.00291
1412.30 0.00290
1412.40 0.00290
1412.50 0.00289
1412.60 0.00289
1412.70 0.00289
1412.80 0.00288
1412.90 0.00288
1413.00 0.00288
1413.10 0.00287
1413.20 0.00287
1413.30 0.00286
1413.40 0.00286
1413.50 0.00286
1413.60 0.00285
1413.70 0.00285
1413.80 0.00284
1413.90 0.00284
1414.00 0.00284
1414.10 0.00283
1414.20 0.00283
1414.30 0.00283
1414.40 0.00282
1414.50 0.00282
1414.60 0.00281
1414.70 0.00281
1414.80 0.00281
1414.90 0.00280
1415.00 0.00280
1415.10 0.00279
1415.20 0.00279
1415.30 0.00279
1415.40 0.00278
1415.50 0.00278
1415.60 0.00277
1415.70 0.00277
1415.80 0.00277
1415.90 0.00276
1416.00 0.00276
1416.10 0.00276
1416.20 0.00275
1416.30 0.00275
1416.40 0.00274
1416.50 0.00274
1416.60 0.00274
1416.70 0.00273
1416.80 0.00273
1416.90 0.00272
1417.00 0.00272
1417.10 0.00272
1417.20 0.00271
1417.30 0.00271
1417.40 0.00270
1417.50 0.00270
1417.60 0.00270
1417.70 0.00269
1417.80 0.00269
1417.90 0.00268
1418.00 0.00268
1418.10 0.00268
1418.20 0.00267
1418.30 0.00267
1418.40 0.00266
1418.50 0.00266
1418.60 0.00266
1418.70 0.00265
1418.80 0.00265
1418.90 0.00264
1419.00 0.00264
1419.10 0.00264
1419.20 0.00263
1419.30 0.00263
1419.40 0.00262
1419.50 0.00262
1419.60 0.00262
1419.70 0.00261
1419.80 0.00261
1419.90 0.00260
1420.00 0.00260
1420.10 0.00259
1420.20 0.00259
1420.30 0.00259
1420.40 0.00258
1420.50 0.00258
1420.60 0.00257
1420.70 0.00257
1420.80 0.00257
1420.90 0.00256
1421.00 0.00256
1421.10 0.00255
1421.20 0.00255
1421.30 0.00255
1421.40 0.00254
1421.50 0.00254
1421.60 0.00253
1421.70 0.00253
1421.80 0.00253
1421.90 0.00252
1422.00 0.00252
1422.10 0.00251
1422.20 0.00251
1422.30 0.00251
1422.40 0.00250
1422.50 0.00250
1422.60 0.00249
1422.70 0.00249
1422.80 0.00248
1422.90 0.00248
1423.00 0.00248
1423.10 0.00247
1423.20 0.00247
1423.30 0.00246
1423.40 0.00246
1423.50 0.00246
1423.60 0.00245
1423.70 0.00245
1423.80 0.00244
1423.90 0.00244
1424.00 0.00244
1424.10 0.00243
1424.20 0.00243
1424.30 0.00242
1424.40 0.00242
1424.50 0.00242
1424.60 0.00241
1424.70 0.00241
1424.80 0.00240
1424.90 0.00240
1425.00 0.00239
1425.10 0.00239
1425.20 0.00239
1425.30 0.00238
1425.40 0.00238
1425.50 0.00237
1425.60 0.00237
1425.70 0.00237
1425.80 0.00236
1425.90 0.00236
1426.00 0.00235
1426.10 0.00235
1426.20 0.00235
1426.30 0.00234
1426.40 0.00234
1426.50 0.00233
1426.60 0.00233
1426.70 0.00232
1426.80 0.00232
1426.90 0.00232
1427.00 0.00231
1427.10 0.00231
1427.20 0.00230
1427.30 0.00230
1427.40 0.00230
1427.50 0.00229
1427.60 0.00229
1427.70 0.00228
1427.80 0.00228
1427.90 0.00228
1428.00 0.00227
1428.10 0.00227
1428.20 0.00226
1428.30 0.00226
1428.40 0.00226
1428.50 0.00225
1428.60 0.00225
1428.70 0.00224
1428.80 0.00224
1428.90 0.00224
1429.00 0.00223
1429.10 0.00223
1429.20 0.00222
1429.30 0.00222
1429.40 0.00222
1429.50 0.00221
1429.60 0.00221
1429.70 0.00220
1429.80 0.00220
1429.90 0.00220
1430.00 0.00219
1430.10 0.00219
1430.20 0.00218
1430.30 0.00218
1430.40 0.00217
1430.50 0.00217
1430.60 0.00217
1430.70 0.00216
1430.80 0.00216
1430.90 0.00215
1431.00 0.00215
1431.10 0.00215
1431.20 0.00214
1431.30 0.00214
1431.40 0.00213
1431.50 0.00213
1431.60 0.00213
1431.70 0.00212
1431.80 0.00212
1431.90 0.00212
1432.00 0.00211
1432.10 0.00211
1432.20 0.00210
1432.30 0.00210
1432.40 0.00210
1432.50 0.00209
1432.60 0.00209
1432.70 0.00208
1432.80 0.00208
1432.90 0.00208
1433.00 0.00207
1433.10 0.00207
1433.20 0.00206
1433.30 0.00206
1433.40 0.00206
1433.50 0.00205
1433.60 0.00205
1433.70 0.00204
1433.80 0.00204
1433.90 0.00204
1434.00 0.00203
1434.10 0.00203
1434.20 0.00203
1434.30 0.00202
1434.40 0.00202
1434.50 0.00201
1434.60 0.00201
1434.70 0.00201
1434.80 0.00200
1434.90 0.00200
1435.00 0.00199
1435.10 0.00199
1435.20 0.00199
1435.30 0.00198
1435.40 0.00198
1435.50 0.00198
1435.60 0.00197
1435.70 0.00197
1435.80 0.00196
1435.90 0.00196
1436.00 0.00196
1436.10 0.00195
1436.20 0.00195
1436.30 0.00195
1436.40 0.00194
1436.50 0.00194
1436.60 0.00193
1436.70 0.00193
1436.80 0.00193
1436.90 0.00192
1437.00 0.00192
1437.10 0.00192
1437.20 0.00191
1437.30 0.00191
1437.40 0.00190
1437.50 0.00190
1437.60 0.00190
1437.70 0.00189
1437.80 0.00189
1437.90 0.00189
1438.00 0.00188
1438.10 0.00188
1438.20 0.00188
1438.30 0.00187
1438.40 0.00187
1438.50 0.00187
1438.60 0.00186
1438.70 0.00186
1438.80 0.00185
1438.90 0.00185
1439.00 0.00185
1439.10 0.00184
1439.20 0.00184
1439.30 0.00184
1439.40 0.00183
1439.50 0.00183
1439.60 0.00183
1439.70 0.00182
1439.80 0.00182
1439.90 0.00182
1440.00 0.00181
1440.10 0.00181
1440.20 0.00181
1440.30 0.00180
1440.40 0.00180
1440.50 0.00179
1440.60 0.00179
1440.70 0.00179
1440.80 0.00178
1440.90 0.00178
1441.00 0.00178
1441.10 0.00177
1441.20 0.00177
1441.30 0.00177
1441.40 0.00176
1441.50 0.00176
1441.60 0.00176
1441.70 0.00175
1441.80 0.00175
1441.90 0.00175
1442.00 0.00174
1442.10 0.00174
1442.20 0.00174
1442.30 0.00173
1442.40 0.00173
1442.50 0.00173
1442.60 0.00173
1442.70 0.00172
1442.80 0.00172
1442.90 0.00172
1443.00 0.00171
1443.10 0.00171
1443.20 0.00171
1443.30 0.00170
1443.40 0.00170
1443.50 0.00170
1443.60 0.00169
1443.70 0.00169
1443.80 0.00169
1443.90 0.00168
1444.00 0.00168
1444.10 0.00168
1444.20 0.00167
1444.30 0.00167
1444.40 0.00167
1444.50 0.00167
1444.60 0.00166
1444.70 0.00166
1444.80 0.00166
1444.90 0.00165
1445.00 0.00165
1445.10 0.00165
1445.20 0.00164
1445.30 0.00164
1445.40 0.00164
1445.50 0.00164
1445.60 0.00163
1445.70 0.00163
1445.80 0.00163
1445.90 0.00162
1446.00 0.00162
1446.10 0.00162
1446.20 0.00161
1446.30 0.00161
1446.40 0.00161
1446.50 0.00161
1446.60 0.00160
1446.70 0.00160
1446.80 0.00160
1446.90 0.00159
1447.00 0.00159
1447.10 0.00159
1447.20 0.00159
1447.30 0.00158
1447.40 0.00158
1447.50 0.00158
1447.60 0.00158
1447.70 0.00157
1447.80 0.00157
1447.90 0.00157
1448.00 0.00156
1448.10 0.00156
1448.20 0.00156
1448.30 0.00156
1448.40 0.00155
1448.50 0.00155
1448.60 0.00155
1448.70 0.00155
1448.80 0.00154
1448.90 0.00154
1449.00 0.00154
1449.10 0.00154
1449.20 0.00153
1449.30 0.00153
1449.40 0.00153
1449.50 0.00153
1449.60 0.00152
1449.70 0.00152
1449.80 0.00152
1449.90 0.00152
1450.00 0.00151
1450.10 0.00151
1450.20 0.00151
1450.30 0.00151
1450.40 0.00150
1450.50 0.00150
1450.60 0.00150
1450.70 0.00150
1450.80 0.00149
1450.90 0.00149
1451.00 0.00149
1451.10 0.00149
1451.20 0.00148
1451.30 0.00148
1451.40 0.00148
1451.50 0.00148
1451.60 0.00148
1451.70 0.00147
1451.80 0.00147
1451.90 0.00147
1452.00 0.00147
1452.10 0.00146
1452.20 0.00146
1452.30 0.00146
1452.40 0.00146
1452.50 0.00146
1452.60 0.00145
1452.70 0.00145
1452.80 0.00145
1452.90 0.00145
1453.00 0.00144
1453.10 0.00144
1453.20 0.00144
1453.30 0.00144
1453.40 0.00144
1453.50 0.00143
1453.60 0.00143
1453.70 0.00143
1453.80 0.00143
1453.90 0.00143
1454.00 0.00142
1454.10 0.00142
1454.20 0.00142
1454.30 0.00142
1454.40 0.00142
1454.50 0.00141
1454.60 0.00141
1454.70 0.00141
1454.80 0.00141
1454.90 0.00141
1455.00 0.00140
1455.10 0.00140
1455.20 0.00140
1455.30 0.00140
1455.40 0.00140
1455.50 0.00140
1455.60 0.00139
1455.70 0.00139
1455.80 0.00139
1455.90 0.00139
1456.00 0.00139
1456.10 0.00138
1456.20 0.00138
1456.30 0.00138
1456.40 0.00138
1456.50 0.00138
1456.60 0.00138
1456.70 0.00137
1456.80 0.00137
1456.90 0.00137
1457.00 0.00137
1457.10 0.00137
1457.20 0.00137
1457.30 0.00136
1457.40 0.00136
1457.50 0.00136
1457.60 0.00136
1457.70 0.00136
1457.80 0.00136
1457.90 0.00136
1458.00 0.00135
1458.10 0.00135
1458.20 0.00135
1458.30 0.00135
1458.40 0.00135
1458.50 0.00135
1458.60 0.00134
1458.70 0.00134
1458.80 0.00134
1458.90 0.00134
1459.00 0.00134
1459.10 0.00134
1459.20 0.00134
1459.30 0.00133
1459.40 0.00133
1459.50 0.00133
1459.60 0.00133
1459.70 0.00133
1459.80 0.00133
1459.90 0.00133
1460.00 0.00133
1460.10 0.00132
1460.20 0.00132
1460.30 0.00132
1460.40 0.00132
1460.50 0.00132
1460.60 0.00132
1460.70 0.00132
1460.80 0.00132
1460.90 0.00131
1461.00 0.00131
1461.10 0.00131
1461.20 0.00131
1461.30 0.00131
1461.40 0.00131
1461.50 0.00131
1461.60 0.00131
1461.70 0.00130
1461.80 0.00130
1461.90 0.00130
1462.00 0.00130
1462.10 0.00130
1462.20 0.00130
1462.30 0.00130
1462.40 0.00130
1462.50 0.00130
1462.60 0.00129
1462.70 0.00129
1462.80 0.00129
1462.90 0.00129
1463.00 0.00129
1463.10 0.00129
1463.20 0.00129
1463.30 0.00129
1463.40 0.00129
1463.50 0.00129
1463.60 0.00128
1463.70 0.00128
1463.80 0.00128
1463.90 0.00128
1464.00 0.00128
1464.10 0.00128
1464.20 0.00128
1464.30 0.00128
1464.40 0.00128
1464.50 0.00128
1464.60 0.00128
1464.70 0.00127
1464.80 0.00127
1464.90 0.00127
1465.00 0.00127
1465.10 0.00127
1465.20 0.00127
1465.30 0.00127
1465.40 0.00127
1465.50 0.00127
1465.60 0.00127
1465.70 0.00127
1465.80 0.00127
1465.90 0.00127
1466.00 0.00126
1466.10 0.00126
1466.20 0.00126
1466.30 0.00126
1466.40 0.00126
1466.50 0.00126
1466.60 0.00126
1466.70 0.00126
1466.80 0.00126
1466.90 0.00126
1467.00 0.00126
1467.10 0.00126
1467.20 0.00126
1467.30 0.00126
1467.40 0.00126
1467.50 0.00125
1467.60 0.00125
1467.70 0.00125
1467.80 0.00125
1467.90 0.00125
1468.00 0.00125
1468.10 0.00125
1468.20 0.00125
1468.30 0.00125
1468.40 0.00125
1468.50 0.00125
1468.60 0.00125
1468.70 0.00125
1468.80 0.00125
1468.90 0.00125
1469.00 0.00125
1469.10 0.00125
1469.20 0.00125
1469.30 0.00125
1469.40 0.00124
1469.50 0.00124
1469.60 0.00124
1469.70 0.00124
1469.80 0.00124
1469.90 0.00124
1470.00 0.00124
1470.10 0.00124
1470.20 0.00124
1470.30 0.00124
1470.40 0.00124
1470.50 0.00124
1470.60 0.00124
1470.70 0.00124
1470.80 0.00124
1470.90 0.00124
1471.00 0.00124
1471.10 0.00124
1471.20 0.00124
1471.30 0.00124
1471.40 0.00124
1471.50 0.00124
1471.60 0.00124
1471.70 0.00124
1471.80 0.00124
1471.90 0.00124
1472.00 0.00123
1472.10 0.00123
1472.20 0.00123
1472.30 0.00123
1472.40 0.00123
1472.50 0.00123
1472.60 0.00123
1472.70 0.00123
1472.80 0.00123
1472.90 0.00123
1473.00 0.00123
1473.10 0.00123
1473.20 0.00123
1473.30 0.00123
1473.40 0.00123
1473.50 0.00123
1473.60 0.00123
1473.70 0.00123
1473.80 0.00123
1473.90 0.00123
1474.00 0.00123
1474.10 0.00123
1474.20 0.00123
1474.30 0.00123
1474.40 0.00123
1474.50 0.00123
1474.60 0.00123
1474.70 0.00123
1474.80 0.00123
1474.90 0.00123
1475.00 0.00123
1475.10 0.00123
1475.20 0.00123
1475.30 0.00123
1475.40 0.00123
1475.50 0.00123
1475.60 0.00123
1475.70 0.00123
1475.80 0.00123
1475.90 0.00123
1476.00 0.00123
1476.10 0.00123
1476.20 0.00123
1476.30 0.00123
1476.40 0.00123
1476.50 0.00123
1476.60 0.00123
1476.70 0.00123
1476.80 0.00123
1476.90 0.00123
1477.00 0.00123
1477.10 0.00123
1477.20 0.00122
1477.30 0.00122
1477.40 0.00122
1477.50 0.00122
1477.60 0.00122
1477.70 0.00122
1477.80 0.00122
1477.90 0.00122
1478.00 0.00122
1478.10 0.00122
1478.20 0.00122
1478.30 0.00122
1478.40 0.00122
1478.50 0.00122
1478.60 0.00122
1478.70 0.00122
1478.80 0.00122
1478.90 0.00122
1479.00 0.00122
1479.10 0.00122
1479.20 0.00122
1479.30 0.00122
1479.40 0.00122
1479.50 0.00122
1479.60 0.00122
1479.70 0.00122
1479.80 0.00122
1479.90 0.00122
1480.00 0.00122
1480.10 0.00122
1480.20 0.00122
1480.30 0.00122
1480.40 0.00122
1480.50 0.00122
1480.60 0.00122
1480.70 0.00122
1480.80 0.00122
1480.90 0.00122
1481.00 0.00122
1481.10 0.00122
1481.20 0.00122
1481.30 0.00122
1481.40 0.00122
1481.50 0.00122
1481.60 0.00122
1481.70 0.00122
1481.80 0.00122
1481.90 0.00122
1482.00 0.00122
1482.10 0.00122
1482.20 0.00122
1482.30 0.00122
1482.40 0.00122
1482.50 0.00122
1482.60 0.00122
1482.70 0.00122
1482.80 0.00122
1482.90 0.00122
1483.00 0.00122
1483.10 0.00122
1483.20 0.00122
1483.30 0.00122
1483.40 0.00122
1483.50 0.00122
1483.60 0.00122
1483.70 0.00122
1483.80 0.00122
1483.90 0.00122
1484.00 0.00122
1484.10 0.00122
1484.20 0.00122
1484.30 0.00122
1484.40 0.00122
1484.50 0.00122
1484.60 0.00122
1484.70 0.00122
1484.80 0.00122
1484.90 0.00122
1485.00 0.00122
1485.10 0.00122
1485.20 0.00122
1485.30 0.00122
1485.40 0.00122
1485.50 0.00122
1485.60 0.00122
1485.70 0.00122
1485.80 0.00122
1485.90 0.00122
1486.00 0.00122
1486.10 0.00122
1486.20 0.00122
1486.30 0.00122
1486.40 0.00122
1486.50 0.00122
1486.60 0.00122
1486.70 0.00122
1486.80 0.00122
1486.90 0.00122
1487.00 0.00122
1487.10 0.00122
1487.20 0.00122
1487.30 0.00122
1487.40 0.00122
1487.50 0.00122
1487.60 0.00121
1487.70 0.00121
1487.80 0.00121
1487.90 0.00121
1488.00 0.00121
1488.10 0.00121
1488.20 0.00121
1488.30 0.00121
1488.40 0.00121
1488.50 0.00121
1488.60 0.00121
1488.70 0.00121
1488.80 0.00121
1488.90 0.00121
1489.00 0.00121
1489.10 0.00121
1489.20 0.00121
1489.30 0.00121
1489.40 0.00121
1489.50 0.00121
1489.60 0.00121
1489.70 0.00121
1489.80 0.00121
1489.90 0.00121
1490.00 0.00121
1490.10 0.00121
1490.20 0.00121
1490.30 0.00121
1490.40 0.00121
1490.50 0.00121
1490.60 0.00121
1490.70 0.00121
1490.80 0.00121
1490.90 0.00121
1491.00 0.00121
1491.10 0.00121
1491.20 0.00121
1491.30 0.00121
1491.40 0.00120
1491.50 0.00120
1491.60 0.00120
1491.70 0.00120
1491.80 0.00120
1491.90 0.00120
1492.00 0.00120
1492.10 0.00120
1492.20 0.00120
1492.30 0.00120
1492.40 0.00120
1492.50 0.00120
1492.60 0.00120
1492.70 0.00120
1492.80 0.00120
1492.90 0.00120
1493.00 0.00120
1493.10 0.00120
1493.20 0.00120
1493.30 0.00120
1493.40 0.00120
1493.50 0.00120
1493.60 0.00120
1493.70 0.00120
1493.80 0.00119
1493.90 0.00119
1494.00 0.00119
1494.10 0.00119
1494.20 0.00119
1494.30 0.00119
1494.40 0.00119
1494.50 0.00119
1494.60 0.00119
1494.70 0.00119
1494.80 0.00119
1494.90 0.00119
1495.00 0.00119
1495.10 0.00119
1495.20 0.00119
1495.30 0.00119
1495.40 0.00119
1495.50 0.00119
1495.60 0.00119
1495.70 0.00118
1495.80 0.00118
1495.90 0.00118
1496.00 0.00118
1496.10 0.00118
1496.20 0.00118
1496.30 0.00118
1496.40 0.00118
1496.50 0.00118
1496.60 0.00118
1496.70 0.00118
1496.80 0.00118
1496.90 0.00118
1497.00 0.00118
1497.10 0.00118
1497.20 0.00118
1497.30 0.00117
1497.40 0.00117
1497.50 0.00117
1497.60 0.00117
1497.70 0.00117
1497.80 0.00117
1497.90 0.00117
1498.00 0.00117
1498.10 0.00117
1498.20 0.00117
1498.30 0.00117
1498.40 0.00117
1498.50 0.00117
1498.60 0.00116
1498.70 0.00116
1498.80 0.00116
1498.90 0.00116
1499.00 0.00116
1499.10 0.00116
1499.20 0.00116
1499.30 0.00116
1499.40 0.00116
1499.50 0.00116
1499.60 0.00116
1499.70 0.00116
1499.80 0.00116
1499.90 0.00115
1500.00 0.00115
1500.10 0.00115
1500.20 0.00115
1500.30 0.00115
1500.40 0.00115
1500.50 0.00115
1500.60 0.00115
1500.70 0.00115
1500.80 0.00115
1500.90 0.00115
1501.00 0.00114
1501.10 0.00114
1501.20 0.00114
1501.30 0.00114
1501.40 0.00114
1501.50 0.00114
1501.60 0.00114
1501.70 0.00114
1501.80 0.00114
1501.90 0.00114
1502.00 0.00113
1502.10 0.00113
1502.20 0.00113
1502.30 0.00113
1502.40 0.00113
1502.50 0.00113
1502.60 0.00113
1502.70 0.00113
1502.80 0.00113
1502.90 0.00113
1503.00 0.00112
1503.10 0.00112
1503.20 0.00112
1503.30 0.00112
1503.40 0.00112
1503.50 0.00112
1503.60 0.00112
1503.70 0.00112
1503.80 0.00112
1503.90 0.00111
1504.00 0.00111
1504.10 0.00111
1504.20 0.00111
1504.30 0.00111
1504.40 0.00111
1504.50 0.00111
1504.60 0.00111
1504.70 0.00110
1504.80 0.00110
1504.90 0.00110
1505.00 0.00110
1505.10 0.00110
1505.20 0.00110
1505.30 0.00110
1505.40 0.00110
1505.50 0.00110
1505.60 0.00109
1505.70 0.00109
1505.80 0.00109
1505.90 0.00109
1506.00 0.00109
1506.10 0.00109
1506.20 0.00109
1506.30 0.00109
1506.40 0.00108
1506.50 0.00108
1506.60 0.00108
1506.70 0.00108
1506.80 0.00108
1506.90 0.00108
1507.00 0.00108
1507.10 0.00107
1507.20 0.00107
1507.30 0.00107
1507.40 0.00107
1507.50 0.00107
1507.60 0.00107
1507.70 0.00107
1507.80 0.00107
1507.90 0.00106
1508.00 0.00106
1508.10 0.00106
1508.20 0.00106
1508.30 0.00106
1508.40 0.00106
1508.50 0.00106
1508.60 0.00105
1508.70 0.00105
1508.80 0.00105
1508.90 0.00105
1509.00 0.00105
1509.10 0.00105
1509.20 0.00105
1509.30 0.00104
1509.40 0.00104
1509.50 0.00104
1509.60 0.00104
1509.70 0.00104
1509.80 0.00104
1509.90 0.00103
1510.00 0.00103
1510.10 0.00103
1510.20 0.00103
1510.30 0.00103
1510.40 0.00103
1510.50 0.00103
1510.60 0.00102
1510.70 0.00102
1510.80 0.00102
1510.90 0.00102
1511.00 0.00102
1511.10 0.00102
1511.20 0.00101
1511.30 0.00101
1511.40 0.00101
1511.50 0.00101
1511.60 0.00101
1511.70 0.00101
1511.80 0.00100
1511.90 0.00100
1512.00 0.00100
1512.10 0.00100
1512.20 0.00100
1512.30 0.00100
1512.40 0.00100
1512.50 0.00099
1512.60 0.00099
1512.70 0.00099
1512.80 0.00099
1512.90 0.00099
1513.00 0.00099
1513.10 0.00098
1513.20 0.00098
1513.30 0.00098
1513.40 0.00098
1513.50 0.00098
1513.60 0.00098
1513.70 0.00097
1513.80 0.00097
1513.90 0.00097
1514.00 0.00097
1514.10 0.00097
1514.20 0.00096
1514.30 0.00096
1514.40 0.00096
1514.50 0.00096
1514.60 0.00096
1514.70 0.00096
1514.80 0.00095
1514.90 0.00095
1515.00 0.00095
1515.10 0.00095
1515.20 0.00095
1515.30 0.00095
1515.40 0.00094
1515.50 0.00094
1515.60 0.00094
1515.70 0.00094
1515.80 0.00094
1515.90 0.00093
1516.00 0.00093
1516.10 0.00093
1516.20 0.00093
1516.30 0.00093
1516.40 0.00093
1516.50 0.00092
1516.60 0.00092
1516.70 0.00092
1516.80 0.00092
1516.90 0.00092
1517.00 0.00091
1517.10 0.00091
1517.20 0.00091
1517.30 0.00091
1517.40 0.00091
1517.50 0.00091
1517.60 0.00090
1517.70 0.00090
1517.80 0.00090
1517.90 0.00090
1518.00 0.00090
1518.10 0.00089
1518.20 0.00089
1518.30 0.00089
1518.40 0.00089
1518.50 0.00089
1518.60 0.00088
1518.70 0.00088
1518.80 0.00088
1518.90 0.00088
1519.00 0.00088
1519.10 0.00088
1519.20 0.00087
1519.30 0.00087
1519.40 0.00087
1519.50 0.00087
1519.60 0.00087
1519.70 0.00086
1519.80 0.00086
1519.90 0.00086
1520.00 0.00086
1520.10 0.00086
1520.20 0.00085
1520.30 0.00085
1520.40 0.00085
1520.50 0.00085
1520.60 0.00085
1520.70 0.00084
1520.80 0.00084
1520.90 0.00084
1521.00 0.00084
1521.10 0.00084
1521.20 0.00083
1521.30 0.00083
1521.40 0.00083
1521.50 0.00083
1521.60 0.00083
1521.70 0.00082
1521.80 0.00082
1521.90 0.00082
1522.00 0.00082
1522.10 0.00082
1522.20 0.00081
1522.30 0.00081
1522.40 0.00081
1522.50 0.00081
1522.60 0.00081
1522.70 0.00080
1522.80 0.00080
1522.90 0.00080
1523.00 0.00080
1523.10 0.00080
1523.20 0.00079
1523.30 0.00079
1523.40 0.00079
1523.50 0.00079
1523.60 0.00079
1523.70 0.00078
1523.80 0.00078
1523.90 0.00078
1524.00 0.00078
1524.10 0.00078
1524.20 0.00077
1524.30 0.00077
1524.40 0.00077
1524.50 0.00077
1524.60 0.00077
1524.70 0.00076
1524.80 0.00076
1524.90 0.00076
1525.00 0.00076
1525.10 0.00076
1525.20 0.00075
1525.30 0.00075
1525.40 0.00075
1525.50 0.00075
1525.60 0.00075
1525.70 0.00074
1525.80 0.00074
1525.90 0.00074
1526.00 0.00074
1526.10 0.00074
1526.20 0.00073
1526.30 0.00073
1526.40 0.00073
1526.50 0.00073
1526.60 0.00073
1526.70 0.00072
1526.80 0.00072
1526.90 0.00072
1527.00 0.00072
1527.10 0.00072
1527.20 0.00071
1527.30 0.00071
1527.40 0.00071
1527.50 0.00071
1527.60 0.00070
1527.70 0.00070
1527.80 0.00070
1527.90 0.00070
1528.00 0.00070
1528.10 0.00069
1528.20 0.00069
1528.30 0.00069
1528.40 0.00069
1528.50 0.00069
1528.60 0.00068
1528.70 0.00068
1528.80 0.00068
1528.90 0.00068
1529.00 0.00068
1529.10 0.00067
1529.20 0.00067
1529.30 0.00067
1529.40 0.00067
1529.50 0.00067
1529.60 0.00066
1529.70 0.00066
1529.80 0.00066
1529.90 0.00066
1530.00 0.00066
1530.10 0.00065
1530.20 0.00065
1530.30 0.00065
1530.40 0.00065
1530.50 0.00065
1530.60 0.00064
1530.70 0.00064
1530.80 0.00064
1530.90 0.00064
1531.00 0.00064
1531.10 0.00063
1531.20 0.00063
1531.30 0.00063
1531.40 0.00063
1531.50 0.00063
1531.60 0.00062
1531.70 0.00062
1531.80 0.00062
1531.90 0.00062
1532.00 0.00062
1532.10 0.00061
1532.20 0.00061
1532.30 0.00061
1532.40 0.00061
1532.50 0.00061
1532.60 0.00060
1532.70 0.00060
1532.80 0.00060
1532.90 0.00060
1533.00 0.00060
1533.10 0.00059
1533.20 0.00059
1533.30 0.00059
1533.40 0.00059
1533.50 0.00059
1533.60 0.00058
1533.70 0.00058
1533.80 0.00058
1533.90 0.00058
1534.00 0.00058
1534.10 0.00057
1534.20 0.00057
1534.30 0.00057
1534.40 0.00057
1534.50 0.00057
1534.60 0.00056
1534.70 0.00056
1534.80 0.00056
1534.90 0.00056
1535.00 0.00056
1535.10 0.00055
1535.20 0.00055
1535.30 0.00055
1535.40 0.00055
1535.50 0.00055
1535.60 0.00054
1535.70 0.00054
1535.80 0.00054
1535.90 0.00054
1536.00 0.00054
1536.10 0.00053
1536.20 0.00053
1536.30 0.00053
1536.40 0.00053
1536.50 0.00053
1536.60 0.00052
1536.70 0.00052
1536.80 0.00052
1536.90 0.00052
1537.00 0.00052
1537.10 0.00052
1537.20 0.00051
1537.30 0.00051
1537.40 0.00051
1537.50 0.00051
1537.60 0.00051
1537.70 0.00050
1537.80 0.00050
1537.90 0.00050
1538.00 0.00050
1538.10 0.00050
1538.20 0.00049
1538.30 0.00049
1538.40 0.00049
1538.50 0.00049
1538.60 0.00049
1538.70 0.00049
1538.80 0.00048
1538.90 0.00048
1539.00 0.00048
1539.10 0.00048
1539.20 0.00048
1539.30 0.00047
1539.40 0.00047
1539.50 0.00047
1539.60 0.00047
1539.70 0.00047
1539.80 0.00047
1539.90 0.00046
1540.00 0.00046
1540.10 0.00046
1540.20 0.00046
1540.30 0.00046
1540.40 0.00045
1540.50 0.00045
1540.60 0.00045
1540.70 0.00045
1540.80 0.00045
1540.90 0.00045
1541.00 0.00044
1541.10 0.00044
1541.20 0.00044
1541.30 0.00044
1541.40 0.00044
1541.50 0.00043
1541.60 0.00043
1541.70 0.00043
1541.80 0.00043
1541.90 0.00043
1542.00 0.00043
1542.10 0.00042
1542.20 0.00042
1542.30 0.00042
1542.40 0.00042
1542.50 0.00042
1542.60 0.00042
1542.70 0.00041
1542.80 0.00041
1542.90 0.00041
1543.00 0.00041
1543.10 0.00041
1543.20 0.00040
1543.30 0.00040
1543.40 0.00040
1543.50 0.00040
1543.60 0.00040
1543.70 0.00040
1543.80 0.00039
1543.90 0.00039
1544.00 0.00039
1544.10 0.00039
1544.20 0.00039
1544.30 0.00039
1544.40 0.00038
1544.50 0.00038
1544.60 0.00038
1544.70 0.00038
1544.80 0.00038
1544.90 0.00038
1545.00 0.00037
1545.10 0.00037
1545.20 0.00037
1545.30 0.00037
1545.40 0.00037
1545.50 0.00037
1545.60 0.00037
1545.70 0.00036
1545.80 0.00036
1545.90 0.00036
1546.00 0.00036
1546.10 0.00036
1546.20 0.00036
1546.30 0.00035
1546.40 0.00035
1546.50 0.00035
1546.60 0.00035
1546.70 0.00035
1546.80 0.00035
1546.90 0.00034
1547.00 0.00034
1547.10 0.00034
1547.20 0.00034
1547.30 0.00034
1547.40 0.00034
1547.50 0.00034
1547.60 0.00033
1547.70 0.00033
1547.80 0.00033
1547.90 0.00033
1548.00 0.00033
1548.10 0.00033
1548.20 0.00032
1548.30 0.00032
1548.40 0.00032
1548.50 0.00032
1548.60 0.00032
1548.70 0.00032
1548.80 0.00032
1548.90 0.00031
1549.00 0.00031
1549.10 0.00031
1549.20 0.00031
1549.30 0.00031
1549.40 0.00031
1549.50 0.00031
1549.60 0.00030
1549.70 0.00030
1549.80 0.00030
1549.90 0.00030
1550.00 0.00030
1550.10 0.00030
1550.20 0.00030
1550.30 0.00029
1550.40 0.00029
1550.50 0.00029
1550.60 0.00029
1550.70 0.00029
1550.80 0.00029
1550.90 0.00029
1551.00 0.00028
1551.10 0.00028
1551.20 0.00028
1551.30 0.00028
1551.40 0.00028
1551.50 0.00028
1551.60 0.00028
1551.70 0.00027
1551.80 0.00027
1551.90 0.00027
1552.00 0.00027
1552.10 0.00027
1552.20 0.00027
1552.30 0.00027
1552.40 0.00027
1552.50 0.00026
1552.60 0.00026
1552.70 0.00026
1552.80 0.00026
1552.90 0.00026
1553.00 0.00026
1553.10 0.00026
1553.20 0.00025
1553.30 0.00025
1553.40 0.00025
1553.50 0.00025
1553.60 0.00025
1553.70 0.00025
1553.80 0.00025
1553.90 0.00025
1554.00 0.00024
1554.10 0.00024
1554.20 0.00024
1554.30 0.00024
1554.40 0.00024
1554.50 0.00024
1554.60 0.00024
1554.70 0.00024
1554.80 0.00023
1554.90 0.00023
1555.00 0.00023
1555.10 0.00023
1555.20 0.00023
1555.30 0.00023
1555.40 0.00023
1555.50 0.00023
1555.60 0.00023
1555.70 0.00022
1555.80 0.00022
1555.90 0.00022
1556.00 0.00022
1556.10 0.00022
1556.20 0.00022
1556.30 0.00022
1556.40 0.00022
1556.50 0.00021
1556.60 0.00021
1556.70 0.00021
1556.80 0.00021
1556.90 0.00021
1557.00 0.00021
1557.10 0.00021
1557.20 0.00021
1557.30 0.00021
1557.40 0.00020
1557.50 0.00020
1557.60 0.00020
1557.70 0.00020
1557.80 0.00020
1557.90 0.00020
1558.00 0.00020
1558.10 0.00020
1558.20 0.00020
1558.30 0.00019
1558.40 0.00019
1558.50 0.00019
1558.60 0.00019
1558.70 0.00019
1558.80 0.00019
1558.90 0.00019
1559.00 0.00019
1559.10 0.00019
1559.20 0.00019
1559.30 0.00018
1559.40 0.00018
1559.50 0.00018
1559.60 0.00018
1559.70 0.00018
1559.80 0.00018
1559.90 0.00018
1560.00 0.00018
1560.10 0.00018
1560.20 0.00018
1560.30 0.00017
1560.40 0.00017
1560.50 0.00017
1560.60 0.00017
1560.70 0.00017
1560.80 0.00017
1560.90 0.00017
1561.00 0.00017
1561.10 0.00017
1561.20 0.00017
1561.30 0.00016
1561.40 0.00016
1561.50 0.00016
1561.60 0.00016
1561.70 0.00016
1561.80 0.00016
1561.90 0.00016
1562.00 0.00016
1562.10 0.00016
1562.20 0.00016
1562.30 0.00016
1562.40 0.00015
1562.50 0.00015
1562.60 0.00015
1562.70 0.00015
1562.80 0.00015
1562.90 0.00015
1563.00 0.00015
1563.10 0.00015
1563.20 0.00015
1563.30 0.00015
1563.40 0.00015
1563.50 0.00014
1563.60 0.00014
1563.70 0.00014
1563.80 0.00014
1563.90 0.00014
1564.00 0.00014
1564.10 0.00014
1564.20 0.00014
1564.30 0.00014
1564.40 0.00014
1564.50 0.00014
1564.60 0.00014
1564.70 0.00013
1564.80 0.00013
1564.90 0.00013
1565.00 0.00013
1565.10 0.00013
1565.20 0.00013
1565.30 0.00013
1565.40 0.00013
1565.50 0.00013
1565.60 0.00013
1565.70 0.00013
1565.80 0.00013
1565.90 0.00013
1566.00 0.00012
1566.10 0.00012
1566.20 0.00012
1566.30 0.00012
1566.40 0.00012
1566.50 0.00012
1566.60 0.00012
1566.70 0.00012
1566.80 0.00012
1566.90 0.00012
1567.00 0.00012
1567.10 0.00012
1567.20 0.00012
1567.30 0.00011
1567.40 0.00011
1567.50 0.00011
1567.60 0.00011
1567.70 0.00011
1567.80 0.00011
1567.90 0.00011
1568.00 0.00011
1568.10 0.00011
1568.20 0.00011
1568.30 0.00011
1568.40 0.00011
1568.50 0.00011
1568.60 0.00011
1568.70 0.00011
1568.80 0.00010
1568.90 0.00010
1569.00 0.00010
1569.10 0.00010
1569.20 0.00010
1569.30 0.00010
1569.40 0.00010
1569.50 0.00010
1569.60 0.00010
1569.70 0.00010
1569.80 0.00010
1569.90 0.00010
1570.00 0.00010
1570.10 0.00010
1570.20 0.00010
1570.30 0.00010
1570.40 0.00009
1570.50 0.00009
1570.60 0.00009
1570.70 0.00009
1570.80 0.00009
1570.90 0.00009
1571.00 0.00009
1571.10 0.00009
1571.20 0.00009
1571.30 0.00009
1571.40 0.00009
1571.50 0.00009
1571.60 0.00009
1571.70 0.00009
1571.80 0.00009
1571.90 0.00009
1572.00 0.00009
1572.10 0.00008
1572.20 0.00008
1572.30 0.00008
1572.40 0.00008
1572.50 0.00008
1572.60 0.00008
1572.70 0.00008
1572.80 0.00008
1572.90 0.00008
1573.00 0.00008
1573.10 0.00008
1573.20 0.00008
1573.30 0.00008
1573.40 0.00008
1573.50 0.00008
1573.60 0.00008
1573.70 0.00008
1573.80 0.00008
1573.90 0.00007
1574.00 0.00007
1574.10 0.00007
1574.20 0.00007
1574.30 0.00007
1574.40 0.00007
1574.50 0.00007
1574.60 0.00007
1574.70 0.00007
1574.80 0.00007
1574.90 0.00007
1575.00 0.00007
1575.10 0.00007
1575.20 0.00007
1575.30 0.00007
1575.40 0.00007
1575.50 0.00007
1575.60 0.00007
1575.70 0.00007
1575.80 0.00007
1575.90 0.00007
1576.00 0.00006
1576.10 0.00006
1576.20 0.00006
1576.30 0.00006
1576.40 0.00006
1576.50 0.00006
1576.60 0.00006
1576.70 0.00006
1576.80 0.00006
1576.90 0.00006
1577.00 0.00006
1577.10 0.00006
1577.20 0.00006
1577.30 0.00006
1577.40 0.00006
1577.50 0.00006
1577.60 0.00006
1577.70 0.00006
1577.80 0.00006
1577.90 0.00006
1578.00 0.00006
1578.10 0.00006
1578.20 0.00006
1578.30 0.00006
1578.40 0.00005
1578.50 0.00005
1578.60 0.00005
1578.70 0.00005
1578.80 0.00005
1578.90 0.00005
1579.00 0.00005
1579.10 0.00005
1579.20 0.00005
1579.30 0.00005
1579.40 0.00005
1579.50 0.00005
1579.60 0.00005
1579.70 0.00005
1579.80 0.00005
1579.90 0.00005
1580.00 0.00005
1580.10 0.00005
1580.20 0.00005
1580.30 0.00005
1580.40 0.00005
1580.50 0.00005
1580.60 0.00005
1580.70 0.00005
1580.80 0.00005
1580.90 0.00005
1581.00 0.00005
1581.10 0.00004
1581.20 0.00004
1581.30 0.00004
1581.40 0.00004
1581.50 0.00004
1581.60 0.00004
1581.70 0.00004
1581.80 0.00004
1581.90 0.00004
1582.00 0.00004
1582.10 0.00004
1582.20 0.00004
1582.30 0.00004
1582.40 0.00004
1582.50 0.00004
1582.60 0.00004
1582.70 0.00004
1582.80 0.00004
1582.90 0.00004
1583.00 0.00004
1583.10 0.00004
1583.20 0.00004
1583.30 0.00004
1583.40 0.00004
1583.50 0.00004
1583.60 0.00004
1583.70 0.00004
1583.80 0.00004
1583.90 0.00004
1584.00 0.00004
1584.10 0.00004
1584.20 0.00004
1584.30 0.00004
1584.40 0.00004
1584.50 0.00003
1584.60 0.00003
1584.70 0.00003
1584.80 0.00003
1584.90 0.00003
1585.00 0.00003
1585.10 0.00003
1585.20 0.00003
1585.30 0.00003
1585.40 0.00003
1585.50 0.00003
1585.60 0.00003
1585.70 0.00003
1585.80 0.00003
1585.90 0.00003
1586.00 0.00003
1586.10 0.00003
1586.20 0.00003
1586.30 0.00003
1586.40 0.00003
1586.50 0.00003
1586.60 0.00003
1586.70 0.00003
1586.80 0.00003
1586.90 0.00003
1587.00 0.00003
1587.10 0.00003
1587.20 0.00003
1587.30 0.00003
1587.40 0.00003
1587.50 0.00003
1587.60 0.00003
1587.70 0.00003
1587.80 0.00003
1587.90 0.00003
1588.00 0.00003
1588.10 0.00003
1588.20 0.00003
1588.30 0.00003
1588.40 0.00003
1588.50 0.00003
1588.60 0.00003
1588.70 0.00003
1588.80 0.00002
1588.90 0.00002
1589.00 0.00002
1589.10 0.00002
1589.20 0.00002
1589.30 0.00002
1589.40 0.00002
1589.50 0.00002
1589.60 0.00002
1589.70 0.00002
1589.80 0.00002
1589.90 0.00002
1590.00 0.00002
1590.10 0.00002
1590.20 0.00002
1590.30 0.00002
1590.40 0.00002
1590.50 0.00002
1590.60 0.00002
1590.70 0.00002
1590.80 0.00002
1590.90 0.00002
1591.00 0.00002
1591.10 0.00002
1591.20 0.00002
1591.30 0.00002
1591.40 0.00002
1591.50 0.00002
1591.60 0.00002
1591.70 0.00002
1591.80 0.00002
1591.90 0.00002
1592.00 0.00002
1592.10 0.00002
1592.20 0.00002
1592.30 0.00002
1592.40 0.00002
1592.50 0.00002
1592.60 0.00002
1592.70 0.00002
1592.80 0.00002
1592.90 0.00002
1593.00 0.00002
1593.10 0.00002
1593.20 0.00002
1593.30 0.00002
1593.40 0.00002
1593.50 0.00002
1593.60 0.00002
1593.70 0.00002
1593.80 0.00002
1593.90 0.00002
1594.00 0.00002
1594.10 0.00002
1594.20 0.00002
1594.30 0.00002
1594.40 0.00002
1594.50 0.00002
1594.60 0.00002
1594.70 0.00002
1594.80 0.00002
1594.90 0.00002
1595.00 0.00001
1595.10 0.00001
1595.20 0.00001
1595.30 0.00001
1595.40 0.00001
1595.50 0.00001
1595.60 0.00001
1595.70 0.00001
1595.80 0.00001
1595.90 0.00001
1596.00 0.00001
1596.10 0.00001
1596.20 0.00001
1596.30 0.00001
1596.40 0.00001
1596.50 0.00001
1596.60 0.00001
1596.70 0.00001
1596.80 0.00001
1596.90 0.00001
1597.00 0.00001
1597.10 0.00001
1597.20 0.00001
1597.30 0.00001
1597.40 0.00001
1597.50 0.00001
1597.60 0.00001
1597.70 0.00001
1597.80 0.00001
1597.90 0.00001
1598.00 0.00001
1598.10 0.00001
1598.20 0.00001
1598.30 0.00001
1598.40 0.00001
1598.50 0.00001
1598.60 0.00001
1598.70 0.00001
1598.80 0.00001
1598.90 0.00001
1599.00 0.00001
1599.10 0.00001
1599.20 0.00001
1599.30 0.00001
1599.40 0.00001
1599.50 0.00001
1599.60 0.00001
1599.70 0.00001
1599.80 0.00001
1599.90 0.00001
1600.00 0.00001
1600.10 0.00001
1600.20 0.00001
1600.30 0.00001
1600.40 0.00001
1600.50 0.00001
1600.60 0.00001
1600.70 0.00001
1600.80 0.00001
1600.90 0.00001
1601.00 0.00001
1601.10 0.00001
1601.20 0.00001
1601.30 0.00001
1601.40 0.00001
1601.50 0.00001
1601.60 0.00001
1601.70 0.00001
1601.80 0.00001
1601.90 0.00001
1602.00 0.00001
1602.10 0.00001
1602.20 0.00001
1602.30 0.00001
1602.40 0.00001
1602.50 0.00001
1602.60 0.00001
1602.70 0.00001
1602.80 0.00001
1602.90 0.00001
1603.00 0.00001
1603.10 0.00001
1603.20 0.00001
1603.30 0.00001
1603.40 0.00001
1603.50 0.00001
1603.60 0.00001
1603.70 0.00001
1603.80 0.00001
1603.90 0.00001
1604.00 0.00001
1604.10 0.00001
1604.20 0.00001
1604.30 0.00001
1604.40 0.00001
1604.50 0.00001
1604.60 0.00001
1604.70 0.00001
1604.80 0.00001
1604.90 0.00001
1605.00 0.00001
1605.10 0.00001
1605.20 0.00001
1605.30 0.00001
1605.40 0.00001
1605.50 0.00001
1605.60 0.00001
1605.70 0.00001
1605.80 0.00001
1605.90 0.00001
1606.00 0.00001
1606.10 0.00001
1606.20 0.00001
1606.30 0.00001
1606.40 0.00001
1606.50 0.00001
1606.60 0.00001
1606.70 0.00001
1606.80 0.00001
1606.90 0.00001
1607.00 0.00001
1607.10 0.00001
1607.20 0.00000
1607.30 0.00000
1607.40 0.00000
1607.50 0.00000
1607.60 0.00000
1607.70 0.00000
1607.80 0.00000
1607.90 0.00000
1608.00 0.00000
1608.10 0.00000
1608.20 0.00000
1608.30 0.00000
1608.40 0.00000
1608.50 0.00000
1608.60 0.00000
1608.70 0.00000
1608.80 0.00000
1608.90 0.00000
1609.00 0.00000
1609.10 0.00000
1609.20 0.00000
1609.30 0.00000
1609.40 0.00000
1609.50 0.00000
1609.60 0.00000
1609.70 0.00000
1609.80 0.00000
1609.90 0.00000
1610.00 0.00000
1610.10 0.00000
1610.20 0.00000
1610.30 0.00000
1610.40 0.00000
1610.50 0.00000
1610.60 0.00000
1610.70 0.00000
1610.80 0.00000
1610.90 0.00000
1611.00 0.00000
1611.10 0.00000
1611.20 0.00000
1611.30 0.00000
1611.40 0.00000
1611.50 0.00000
1611.60 0.00000
1611.70 0.00000
1611.80 0.00000
1611.90 0.00000
1612.00 0.00000
1612.10 0.00000
1612.20 0.00000
1612.30 0.00000
1612.40 0.00000
1612.50 0.00000
1612.60 0.00000
1612.70 0.00000
1612.80 0.00000
1612.90 0.00000
1613.00 0.00000
1613.10 0.00000
1613.20 0.00000
1613.30 0.00000
1613.40 0.00000
1613.50 0.00000
1613.60 0.00000
1613.70 0.00000
1613.80 0.00000
1613.90 0.00000
1614.00 0.00000
1614.10 0.00000
1614.20 0.00000
1614.30 0.00000
1614.40 0.00000
1614.50 0.00000
1614.60 0.00000
1614.70 0.00000
1614.80 0.00000
1614.90 0.00000
1615.00 0.00000
1615.10 0.00000
1615.20 0.00000
1615.30 0.00000
1615.40 0.00000
1615.50 0.00000
1615.60 0.00000
