# LSST transmission (instrument+atmosphere)
#   wavelength[nm] Thoughput
908.400000 0.000000
908.500000 0.000359
908.600000 0.000719
908.700000 0.001457
908.800000 0.002196
908.900000 0.002935
909.000000 0.003673
909.100000 0.004396
909.200000 0.005120
909.300000 0.005865
909.400000 0.006612
909.500000 0.007360
909.600000 0.008106
909.700000 0.008833
909.800000 0.009560
909.900000 0.010308
910.000000 0.011057
910.100000 0.011778
910.200000 0.012496
910.300000 0.013192
910.400000 0.013884
910.500000 0.014594
910.600000 0.015370
910.700000 0.016150
910.800000 0.016933
910.900000 0.017700
911.000000 0.018470
911.100000 0.019234
911.200000 0.019999
911.300000 0.020766
911.400000 0.021534
911.500000 0.022283
911.600000 0.022947
911.700000 0.023627
911.800000 0.024304
911.900000 0.024956
912.000000 0.025604
912.100000 0.026408
912.200000 0.027216
912.300000 0.028028
912.400000 0.028843
912.500000 0.029642
912.600000 0.030191
912.700000 0.030752
912.800000 0.031304
912.900000 0.031848
913.000000 0.032383
913.100000 0.032871
913.200000 0.033351
913.300000 0.033840
913.400000 0.034320
913.500000 0.035152
913.600000 0.036407
913.700000 0.038037
913.800000 0.039682
913.900000 0.041323
914.000000 0.042979
914.100000 0.044769
914.200000 0.046580
914.300000 0.048412
914.400000 0.050265
914.500000 0.052119
914.600000 0.053469
914.700000 0.054830
914.800000 0.056184
914.900000 0.057529
915.000000 0.058866
915.100000 0.059687
915.200000 0.060475
915.300000 0.061210
915.400000 0.061913
915.500000 0.062602
915.600000 0.064196
915.700000 0.065798
915.800000 0.067407
915.900000 0.069025
916.000000 0.070650
916.100000 0.072854
916.200000 0.075088
916.300000 0.077373
916.400000 0.079688
916.500000 0.082034
916.600000 0.083561
916.700000 0.085089
916.800000 0.086617
916.900000 0.088126
917.000000 0.089635
917.100000 0.090454
917.200000 0.091249
917.300000 0.092023
917.400000 0.092774
917.500000 0.093503
917.600000 0.094634
917.700000 0.095737
917.800000 0.096829
917.900000 0.097932
918.000000 0.099025
918.100000 0.101014
918.200000 0.103018
918.300000 0.105019
918.400000 0.107034
918.500000 0.109084
918.600000 0.111173
918.700000 0.113279
918.800000 0.115400
918.900000 0.117537
919.000000 0.119689
919.100000 0.121371
919.200000 0.123057
919.300000 0.124768
919.400000 0.126484
919.500000 0.128203
919.600000 0.129708
919.700000 0.131212
919.800000 0.132715
919.900000 0.134197
920.000000 0.135678
920.100000 0.137542
920.200000 0.139413
920.300000 0.141291
920.400000 0.143176
920.500000 0.145068
920.600000 0.146507
920.700000 0.147924
920.800000 0.149339
920.900000 0.150771
921.000000 0.152202
921.100000 0.153257
921.200000 0.154303
921.300000 0.155340
921.400000 0.156368
921.500000 0.157367
921.600000 0.158726
921.700000 0.160104
921.800000 0.161479
921.900000 0.162851
922.000000 0.164222
922.100000 0.165983
922.200000 0.167750
922.300000 0.169540
922.400000 0.171336
922.500000 0.173135
922.600000 0.174500
922.700000 0.175862
922.800000 0.177222
922.900000 0.178559
923.000000 0.179893
923.100000 0.181156
923.200000 0.182414
923.300000 0.183668
923.400000 0.184918
923.500000 0.186164
923.600000 0.187328
923.700000 0.188468
923.800000 0.189603
923.900000 0.190753
924.000000 0.191897
924.100000 0.193068
924.200000 0.194234
924.300000 0.195393
924.400000 0.196547
924.500000 0.197676
924.600000 0.198968
924.700000 0.200276
924.800000 0.201580
924.900000 0.202879
925.000000 0.204175
925.100000 0.205746
925.200000 0.207317
925.300000 0.208907
925.400000 0.210497
925.500000 0.212086
925.600000 0.213584
925.700000 0.215081
925.800000 0.216576
925.900000 0.218051
926.000000 0.219525
926.100000 0.220970
926.200000 0.222414
926.300000 0.223858
926.400000 0.225301
926.500000 0.226745
926.600000 0.228332
926.700000 0.229901
926.800000 0.231471
926.900000 0.233062
927.000000 0.234654
927.100000 0.234726
927.200000 0.234781
927.300000 0.234821
927.400000 0.234846
927.500000 0.234835
927.600000 0.234303
927.700000 0.233768
927.800000 0.233212
927.900000 0.232636
928.000000 0.232039
928.100000 0.232915
928.200000 0.233786
928.300000 0.234633
928.400000 0.235475
928.500000 0.236330
928.600000 0.236914
928.700000 0.237490
928.800000 0.238060
928.900000 0.238603
929.000000 0.239139
929.100000 0.239203
929.200000 0.239252
929.300000 0.239288
929.400000 0.239310
929.500000 0.239316
929.600000 0.238300
929.700000 0.237242
929.800000 0.236161
929.900000 0.235072
930.000000 0.233959
930.100000 0.233069
930.200000 0.232157
930.300000 0.231223
930.400000 0.230267
930.500000 0.229274
930.600000 0.228318
930.700000 0.227357
930.800000 0.226375
930.900000 0.225374
931.000000 0.224352
931.100000 0.223038
931.200000 0.221703
931.300000 0.220333
931.400000 0.218944
931.500000 0.217551
931.600000 0.214127
931.700000 0.210667
931.800000 0.207172
931.900000 0.203643
932.000000 0.200079
932.100000 0.199211
932.200000 0.198329
932.300000 0.197446
932.400000 0.196549
932.500000 0.195639
932.600000 0.196742
932.700000 0.197834
932.800000 0.198927
932.900000 0.200033
933.000000 0.201141
933.100000 0.200627
933.200000 0.200102
933.300000 0.199567
933.400000 0.199021
933.500000 0.198454
933.600000 0.194464
933.700000 0.190451
933.800000 0.186406
933.900000 0.182327
934.000000 0.178215
934.100000 0.177068
934.200000 0.175908
934.300000 0.174726
934.400000 0.173533
934.500000 0.172337
934.600000 0.178452
934.700000 0.184602
934.800000 0.190788
934.900000 0.197008
935.000000 0.203264
935.100000 0.205689
935.200000 0.208126
935.300000 0.210273
935.400000 0.212428
935.500000 0.214472
935.600000 0.213040
935.700000 0.211605
935.800000 0.210164
935.900000 0.208719
936.000000 0.207269
936.100000 0.208282
936.200000 0.209297
936.300000 0.210312
936.400000 0.211329
936.500000 0.212346
936.600000 0.211460
936.700000 0.210571
936.800000 0.209678
936.900000 0.208783
937.000000 0.207884
937.100000 0.210303
937.200000 0.212726
937.300000 0.215154
937.400000 0.217585
937.500000 0.220020
937.600000 0.221104
937.700000 0.222084
937.800000 0.223064
937.900000 0.223704
938.000000 0.224342
938.100000 0.225152
938.200000 0.225959
938.300000 0.226765
938.400000 0.227570
938.500000 0.228373
938.600000 0.234345
938.700000 0.240304
938.800000 0.246252
938.900000 0.252189
939.000000 0.258117
939.100000 0.264248
939.200000 0.270367
939.300000 0.276475
939.400000 0.282574
939.500000 0.288665
939.600000 0.287451
939.700000 0.286246
939.800000 0.285048
939.900000 0.283859
940.000000 0.282679
940.100000 0.279072
940.200000 0.275475
940.300000 0.271889
940.400000 0.268312
940.500000 0.264744
940.600000 0.264388
940.700000 0.264036
940.800000 0.263689
940.900000 0.263344
941.000000 0.263002
941.100000 0.264758
941.200000 0.266512
941.300000 0.268263
941.400000 0.270010
941.500000 0.271753
941.600000 0.271137
941.700000 0.270521
941.800000 0.269907
941.900000 0.269293
942.000000 0.268680
942.100000 0.263361
942.200000 0.258050
942.300000 0.252748
942.400000 0.247455
942.500000 0.242170
942.600000 0.238198
942.700000 0.234233
942.800000 0.230274
942.900000 0.226321
943.000000 0.222374
943.100000 0.225196
943.200000 0.228014
943.300000 0.230829
943.400000 0.233641
943.500000 0.236449
943.600000 0.233864
943.700000 0.231279
943.800000 0.228697
943.900000 0.226118
944.000000 0.223541
944.100000 0.221218
944.200000 0.218899
944.300000 0.216584
944.400000 0.214274
944.500000 0.211969
944.600000 0.217396
944.700000 0.222819
944.800000 0.228238
944.900000 0.233653
945.000000 0.239064
945.100000 0.239874
945.200000 0.240687
945.300000 0.241501
945.400000 0.242316
945.500000 0.243134
945.600000 0.239840
945.700000 0.236552
945.800000 0.233268
945.900000 0.229989
946.000000 0.226714
946.100000 0.227813
946.200000 0.228910
946.300000 0.230007
946.400000 0.231101
946.500000 0.232192
946.600000 0.235225
946.700000 0.238255
946.800000 0.241282
946.900000 0.244305
947.000000 0.247325
947.100000 0.246728
947.200000 0.246132
947.300000 0.245536
947.400000 0.244941
947.500000 0.244347
947.600000 0.239956
947.700000 0.235571
947.800000 0.231194
947.900000 0.226822
948.000000 0.222457
948.100000 0.224155
948.200000 0.225850
948.300000 0.227544
948.400000 0.229237
948.500000 0.230927
948.600000 0.236922
948.700000 0.242911
948.800000 0.248896
948.900000 0.254876
949.000000 0.260850
949.100000 0.257465
949.200000 0.254084
949.300000 0.250706
949.400000 0.247331
949.500000 0.243960
949.600000 0.239209
949.700000 0.234462
949.800000 0.229720
949.900000 0.224983
950.000000 0.220250
950.100000 0.223470
950.200000 0.226684
950.300000 0.229894
950.400000 0.233099
950.500000 0.236299
950.600000 0.242114
950.700000 0.247921
950.800000 0.253719
950.900000 0.259509
951.000000 0.265291
951.100000 0.264240
951.200000 0.263190
951.300000 0.262142
951.400000 0.261094
951.500000 0.260048
951.600000 0.253475
951.700000 0.246912
951.800000 0.240358
951.900000 0.233814
952.000000 0.227280
952.100000 0.225486
952.200000 0.223695
952.300000 0.221907
952.400000 0.220121
952.500000 0.218337
952.600000 0.221655
952.700000 0.224967
952.800000 0.228274
952.900000 0.231576
953.000000 0.234872
953.100000 0.236875
953.200000 0.238874
953.300000 0.240870
953.400000 0.242863
953.500000 0.244852
953.600000 0.245236
953.700000 0.245620
953.800000 0.246004
953.900000 0.246386
954.000000 0.246767
954.100000 0.245850
954.200000 0.244933
954.300000 0.244017
954.400000 0.243101
954.500000 0.242185
954.600000 0.242414
954.700000 0.242642
954.800000 0.242868
954.900000 0.243093
955.000000 0.243317
955.100000 0.242230
955.200000 0.241144
955.300000 0.240058
955.400000 0.238972
955.500000 0.237886
955.600000 0.236737
955.700000 0.235588
955.800000 0.234440
955.900000 0.233293
956.000000 0.232146
956.100000 0.232266
956.200000 0.232384
956.300000 0.232502
956.400000 0.232619
956.500000 0.232736
956.600000 0.233165
956.700000 0.233593
956.800000 0.234020
956.900000 0.234446
957.000000 0.234870
957.100000 0.238511
957.200000 0.242144
957.300000 0.245771
957.400000 0.249390
957.500000 0.253002
957.600000 0.253134
957.700000 0.253266
957.800000 0.253397
957.900000 0.253528
958.000000 0.253658
958.100000 0.251660
958.200000 0.249665
958.300000 0.247673
958.400000 0.245683
958.500000 0.243697
958.600000 0.241898
958.700000 0.240101
958.800000 0.238307
958.900000 0.236516
959.000000 0.234727
959.100000 0.233338
959.200000 0.231952
959.300000 0.230567
959.400000 0.229184
959.500000 0.227802
959.600000 0.229530
959.700000 0.231253
959.800000 0.232971
959.900000 0.234685
960.000000 0.236395
960.100000 0.238049
960.200000 0.239699
960.300000 0.241344
960.400000 0.242985
960.500000 0.244623
960.600000 0.245652
960.700000 0.246679
960.800000 0.247703
960.900000 0.248724
961.000000 0.249742
961.100000 0.250766
961.200000 0.251787
961.300000 0.252805
961.400000 0.253821
961.500000 0.254834
961.600000 0.253336
961.700000 0.251840
961.800000 0.250346
961.900000 0.248855
962.000000 0.247365
962.100000 0.244827
962.200000 0.242293
962.300000 0.239762
962.400000 0.237235
962.500000 0.234712
962.600000 0.236457
962.700000 0.238198
962.800000 0.239935
962.900000 0.241668
963.000000 0.243397
963.100000 0.245109
963.200000 0.246817
963.300000 0.248521
963.400000 0.250222
963.500000 0.251919
963.600000 0.251031
963.700000 0.250146
963.800000 0.249261
963.900000 0.248378
964.000000 0.247497
964.100000 0.247251
964.200000 0.247005
964.300000 0.246759
964.400000 0.246513
964.500000 0.246266
964.600000 0.246889
964.700000 0.247509
964.800000 0.248127
964.900000 0.248741
965.000000 0.249352
965.100000 0.250554
965.200000 0.251752
965.300000 0.252947
965.400000 0.254138
965.500000 0.255325
965.600000 0.254040
965.700000 0.252756
965.800000 0.251474
965.900000 0.250193
966.000000 0.248913
966.100000 0.246647
966.200000 0.244385
966.300000 0.242128
966.400000 0.239875
966.500000 0.237627
966.600000 0.238394
966.700000 0.239159
966.800000 0.239923
966.900000 0.240684
967.000000 0.241443
967.100000 0.245045
967.200000 0.248639
967.300000 0.252225
967.400000 0.255804
967.500000 0.259375
967.600000 0.260409
967.700000 0.261440
967.800000 0.262468
967.900000 0.263494
968.000000 0.264516
968.100000 0.263134
968.200000 0.261754
968.300000 0.260376
968.400000 0.259000
968.500000 0.257627
968.600000 0.258034
968.700000 0.258439
968.800000 0.258842
968.900000 0.259243
969.000000 0.259642
969.100000 0.260084
969.200000 0.260524
969.300000 0.260963
969.400000 0.261399
969.500000 0.261834
969.600000 0.261003
969.700000 0.260173
969.800000 0.259344
969.900000 0.258515
970.000000 0.257687
970.100000 0.257208
970.200000 0.256729
970.300000 0.256250
970.400000 0.255771
970.500000 0.255292
970.600000 0.255683
970.700000 0.256073
970.800000 0.256460
970.900000 0.256847
971.000000 0.257231
971.100000 0.256361
971.200000 0.255493
971.300000 0.254626
971.400000 0.253760
971.500000 0.252895
971.600000 0.252354
971.700000 0.251813
971.800000 0.251273
971.900000 0.250732
972.000000 0.250192
972.100000 0.249747
972.200000 0.249303
972.300000 0.248858
972.400000 0.248414
972.500000 0.247969
972.600000 0.246995
972.700000 0.246022
972.800000 0.245051
972.900000 0.244082
973.000000 0.243115
973.100000 0.242398
973.200000 0.241683
973.300000 0.240969
973.400000 0.240256
973.500000 0.239544
973.600000 0.239096
973.700000 0.238647
973.800000 0.238199
973.900000 0.237752
974.000000 0.237305
974.100000 0.236585
974.200000 0.235865
974.300000 0.235147
974.400000 0.234430
974.500000 0.233714
974.600000 0.232998
974.700000 0.232284
974.800000 0.231571
974.900000 0.230858
975.000000 0.230147
975.100000 0.230047
975.200000 0.229945
975.300000 0.229844
975.400000 0.229742
975.500000 0.229639
975.600000 0.229127
975.700000 0.228615
975.800000 0.228104
975.900000 0.227593
976.000000 0.227083
976.100000 0.227287
976.200000 0.227489
976.300000 0.227690
976.400000 0.227889
976.500000 0.228087
976.600000 0.229192
976.700000 0.230292
976.800000 0.231390
976.900000 0.232483
977.000000 0.233573
977.100000 0.233917
977.200000 0.234260
977.300000 0.234601
977.400000 0.234941
977.500000 0.235279
977.600000 0.234470
977.700000 0.233662
977.800000 0.232856
977.900000 0.232051
978.000000 0.231247
978.100000 0.230719
978.200000 0.230192
978.300000 0.229665
978.400000 0.229138
978.500000 0.228611
978.600000 0.228281
978.700000 0.227952
978.800000 0.227622
978.900000 0.227291
979.000000 0.226961
979.100000 0.226468
979.200000 0.225976
979.300000 0.225484
979.400000 0.224993
979.500000 0.224503
979.600000 0.224547
979.700000 0.224590
979.800000 0.224633
979.900000 0.224675
980.000000 0.224716
980.100000 0.224745
980.200000 0.224774
980.300000 0.224801
980.400000 0.224828
980.500000 0.224853
980.600000 0.225740
980.700000 0.226623
980.800000 0.227503
980.900000 0.228379
981.000000 0.229252
981.100000 0.229343
981.200000 0.229433
981.300000 0.229522
981.400000 0.229609
981.500000 0.229695
981.600000 0.229166
981.700000 0.228637
981.800000 0.228108
981.900000 0.227580
982.000000 0.227052
982.100000 0.226384
982.200000 0.225718
982.300000 0.225053
982.400000 0.224389
982.500000 0.223726
982.600000 0.223345
982.700000 0.222963
982.800000 0.222582
982.900000 0.222201
983.000000 0.221820
983.100000 0.222145
983.200000 0.222467
983.300000 0.222788
983.400000 0.223107
983.500000 0.223424
983.600000 0.223510
983.700000 0.223596
983.800000 0.223680
983.900000 0.223763
984.000000 0.223844
984.100000 0.223352
984.200000 0.222861
984.300000 0.222368
984.400000 0.221876
984.500000 0.221382
984.600000 0.220843
984.700000 0.220303
984.800000 0.219763
984.900000 0.219223
985.000000 0.218681
985.100000 0.218597
985.200000 0.218511
985.300000 0.218423
985.400000 0.218333
985.500000 0.218242
985.600000 0.218283
985.700000 0.218322
985.800000 0.218358
985.900000 0.218393
986.000000 0.218426
986.100000 0.218154
986.200000 0.217883
986.300000 0.217611
986.400000 0.217339
986.500000 0.217067
986.600000 0.216620
986.700000 0.216173
986.800000 0.215727
986.900000 0.215281
987.000000 0.214835
987.100000 0.214446
987.200000 0.214056
987.300000 0.213667
987.400000 0.213278
987.500000 0.212890
987.600000 0.212675
987.700000 0.212459
987.800000 0.212244
987.900000 0.212028
988.000000 0.211812
988.100000 0.211661
988.200000 0.211509
988.300000 0.211357
988.400000 0.211203
988.500000 0.211049
988.600000 0.210724
988.700000 0.210398
988.800000 0.210072
988.900000 0.209746
989.000000 0.209419
989.100000 0.209018
989.200000 0.208618
989.300000 0.208217
989.400000 0.207818
989.500000 0.207419
989.600000 0.206978
989.700000 0.206539
989.800000 0.206100
989.900000 0.205662
990.000000 0.205225
990.100000 0.204931
990.200000 0.204639
990.300000 0.204346
990.400000 0.204054
990.500000 0.203763
990.600000 0.203513
990.700000 0.203264
990.800000 0.203014
990.900000 0.202765
991.000000 0.202515
991.100000 0.202209
991.200000 0.201904
991.300000 0.201597
991.400000 0.201291
991.500000 0.200985
991.600000 0.200718
991.700000 0.200452
991.800000 0.200185
991.900000 0.199918
992.000000 0.199651
992.100000 0.199292
992.200000 0.198933
992.300000 0.198573
992.400000 0.198214
992.500000 0.197855
992.600000 0.197497
992.700000 0.197138
992.800000 0.196779
992.900000 0.196421
993.000000 0.196063
993.100000 0.195777
993.200000 0.195491
993.300000 0.195205
993.400000 0.194919
993.500000 0.194632
993.600000 0.194385
993.700000 0.194137
993.800000 0.193888
993.900000 0.193640
994.000000 0.193391
994.100000 0.193082
994.200000 0.192772
994.300000 0.192463
994.400000 0.192155
994.500000 0.191846
994.600000 0.191539
994.700000 0.191231
994.800000 0.190925
994.900000 0.190618
995.000000 0.190312
995.100000 0.190005
995.200000 0.189699
995.300000 0.189393
995.400000 0.189087
995.500000 0.188781
995.600000 0.188476
995.700000 0.188171
995.800000 0.187866
995.900000 0.187562
996.000000 0.187257
996.100000 0.186936
996.200000 0.186614
996.300000 0.186292
996.400000 0.185970
996.500000 0.185648
996.600000 0.185325
996.700000 0.185003
996.800000 0.184680
996.900000 0.184357
997.000000 0.184034
997.100000 0.183718
997.200000 0.183403
997.300000 0.183088
997.400000 0.182773
997.500000 0.182458
997.600000 0.182143
997.700000 0.181829
997.800000 0.181514
997.900000 0.181200
998.000000 0.180886
998.100000 0.180581
998.200000 0.180277
998.300000 0.179973
998.400000 0.179668
998.500000 0.179364
998.600000 0.179060
998.700000 0.178755
998.800000 0.178451
998.900000 0.178147
999.000000 0.177843
999.100000 0.177524
999.200000 0.177204
999.300000 0.176885
999.400000 0.176565
999.500000 0.176244
999.600000 0.175923
999.700000 0.175602
999.800000 0.175280
999.900000 0.174958
1000.000000 0.174635
1000.100000 0.174372
1000.200000 0.174108
1000.300000 0.173844
1000.400000 0.173579
1000.500000 0.173314
1000.600000 0.172979
1000.700000 0.172643
1000.800000 0.172307
1000.900000 0.171971
1001.000000 0.171635
1001.100000 0.171259
1001.200000 0.170883
1001.300000 0.170508
1001.400000 0.170133
1001.500000 0.169758
1001.600000 0.169384
1001.700000 0.169009
1001.800000 0.168636
1001.900000 0.168262
1002.000000 0.167888
1002.100000 0.167611
1002.200000 0.167333
1002.300000 0.167056
1002.400000 0.166778
1002.500000 0.166500
1002.600000 0.166289
1002.700000 0.166078
1002.800000 0.165866
1002.900000 0.165654
1003.000000 0.165442
1003.100000 0.165123
1003.200000 0.164805
1003.300000 0.164486
1003.400000 0.164167
1003.500000 0.163849
1003.600000 0.163531
1003.700000 0.163212
1003.800000 0.162894
1003.900000 0.162576
1004.000000 0.162258
1004.100000 0.161955
1004.200000 0.161651
1004.300000 0.161347
1004.400000 0.161043
1004.500000 0.160739
1004.600000 0.160435
1004.700000 0.160130
1004.800000 0.159825
1004.900000 0.159519
1005.000000 0.159214
1005.100000 0.158899
1005.200000 0.158585
1005.300000 0.158270
1005.400000 0.157955
1005.500000 0.157639
1005.600000 0.157323
1005.700000 0.157006
1005.800000 0.156690
1005.900000 0.156373
1006.000000 0.156055
1006.100000 0.155758
1006.200000 0.155460
1006.300000 0.155162
1006.400000 0.154865
1006.500000 0.154567
1006.600000 0.154301
1006.700000 0.154034
1006.800000 0.153767
1006.900000 0.153501
1007.000000 0.153234
1007.100000 0.152915
1007.200000 0.152595
1007.300000 0.152276
1007.400000 0.151957
1007.500000 0.151638
1007.600000 0.151350
1007.700000 0.151062
1007.800000 0.150774
1007.900000 0.150486
1008.000000 0.150198
1008.100000 0.149850
1008.200000 0.149501
1008.300000 0.149153
1008.400000 0.148804
1008.500000 0.148456
1008.600000 0.148107
1008.700000 0.147758
1008.800000 0.147409
1008.900000 0.147060
1009.000000 0.146712
1009.100000 0.146374
1009.200000 0.146037
1009.300000 0.145701
1009.400000 0.145365
1009.500000 0.145030
1009.600000 0.144754
1009.700000 0.144479
1009.800000 0.144205
1009.900000 0.143931
1010.000000 0.143658
1010.100000 0.143444
1010.200000 0.143230
1010.300000 0.143016
1010.400000 0.142803
1010.500000 0.142590
1010.600000 0.142349
1010.700000 0.142108
1010.800000 0.141867
1010.900000 0.141627
1011.000000 0.141386
1011.100000 0.141094
1011.200000 0.140802
1011.300000 0.140510
1011.400000 0.140218
1011.500000 0.139926
1011.600000 0.139604
1011.700000 0.139283
1011.800000 0.138961
1011.900000 0.138640
1012.000000 0.138319
1012.100000 0.138033
1012.200000 0.137747
1012.300000 0.137460
1012.400000 0.137174
1012.500000 0.136888
1012.600000 0.136630
1012.700000 0.136372
1012.800000 0.136113
1012.900000 0.135855
1013.000000 0.135596
1013.100000 0.135320
1013.200000 0.135043
1013.300000 0.134766
1013.400000 0.134489
1013.500000 0.134212
1013.600000 0.133936
1013.700000 0.133659
1013.800000 0.133382
1013.900000 0.133105
1014.000000 0.132828
1014.100000 0.132539
1014.200000 0.132250
1014.300000 0.131960
1014.400000 0.131670
1014.500000 0.131380
1014.600000 0.131089
1014.700000 0.130798
1014.800000 0.130507
1014.900000 0.130216
1015.000000 0.129924
1015.100000 0.129655
1015.200000 0.129386
1015.300000 0.129117
1015.400000 0.128847
1015.500000 0.128577
1015.600000 0.128307
1015.700000 0.128036
1015.800000 0.127766
1015.900000 0.127495
1016.000000 0.127224
1016.100000 0.126943
1016.200000 0.126661
1016.300000 0.126380
1016.400000 0.126098
1016.500000 0.125817
1016.600000 0.125536
1016.700000 0.125255
1016.800000 0.124973
1016.900000 0.124692
1017.000000 0.124411
1017.100000 0.124124
1017.200000 0.123838
1017.300000 0.123551
1017.400000 0.123264
1017.500000 0.122978
1017.600000 0.122691
1017.700000 0.122404
1017.800000 0.122118
1017.900000 0.121831
1018.000000 0.121545
1018.100000 0.121272
1018.200000 0.120999
1018.300000 0.120727
1018.400000 0.120454
1018.500000 0.120181
1018.600000 0.119884
1018.700000 0.119587
1018.800000 0.119290
1018.900000 0.118994
1019.000000 0.118697
1019.100000 0.118441
1019.200000 0.118185
1019.300000 0.117928
1019.400000 0.117672
1019.500000 0.117416
1019.600000 0.117183
1019.700000 0.116950
1019.800000 0.116716
1019.900000 0.116483
1020.000000 0.116250
1020.100000 0.115975
1020.200000 0.115700
1020.300000 0.115426
1020.400000 0.115151
1020.500000 0.114877
1020.600000 0.114602
1020.700000 0.114328
1020.800000 0.114053
1020.900000 0.113779
1021.000000 0.113504
1021.100000 0.113241
1021.200000 0.112978
1021.300000 0.112715
1021.400000 0.112451
1021.500000 0.112188
1021.600000 0.111925
1021.700000 0.111661
1021.800000 0.111398
1021.900000 0.111134
1022.000000 0.110871
1022.100000 0.110611
1022.200000 0.110351
1022.300000 0.110091
1022.400000 0.109831
1022.500000 0.109571
1022.600000 0.109288
1022.700000 0.109006
1022.800000 0.108724
1022.900000 0.108442
1023.000000 0.108161
1023.100000 0.107904
1023.200000 0.107647
1023.300000 0.107389
1023.400000 0.107132
1023.500000 0.106875
1023.600000 0.106597
1023.700000 0.106319
1023.800000 0.106040
1023.900000 0.105762
1024.000000 0.105485
1024.100000 0.105258
1024.200000 0.105030
1024.300000 0.104803
1024.400000 0.104575
1024.500000 0.104347
1024.600000 0.104119
1024.700000 0.103890
1024.800000 0.103661
1024.900000 0.103431
1025.000000 0.103202
1025.100000 0.102843
1025.200000 0.102484
1025.300000 0.102125
1025.400000 0.101765
1025.500000 0.101406
1025.600000 0.101046
1025.700000 0.100686
1025.800000 0.100326
1025.900000 0.099966
1026.000000 0.099606
1026.100000 0.099249
1026.200000 0.098893
1026.300000 0.098536
1026.400000 0.098180
1026.500000 0.097824
1026.600000 0.097468
1026.700000 0.097112
1026.800000 0.096756
1026.900000 0.096400
1027.000000 0.096044
1027.100000 0.095714
1027.200000 0.095383
1027.300000 0.095053
1027.400000 0.094723
1027.500000 0.094392
1027.600000 0.094062
1027.700000 0.093732
1027.800000 0.093402
1027.900000 0.093071
1028.000000 0.092741
1028.100000 0.092404
1028.200000 0.092068
1028.300000 0.091731
1028.400000 0.091394
1028.500000 0.091058
1028.600000 0.090721
1028.700000 0.090383
1028.800000 0.090046
1028.900000 0.089708
1029.000000 0.089371
1029.100000 0.089048
1029.200000 0.088726
1029.300000 0.088403
1029.400000 0.088081
1029.500000 0.087760
1029.600000 0.087456
1029.700000 0.087153
1029.800000 0.086850
1029.900000 0.086547
1030.000000 0.086245
1030.100000 0.085925
1030.200000 0.085606
1030.300000 0.085288
1030.400000 0.084970
1030.500000 0.084652
1030.600000 0.084335
1030.700000 0.084018
1030.800000 0.083701
1030.900000 0.083385
1031.000000 0.083068
1031.100000 0.082766
1031.200000 0.082464
1031.300000 0.082162
1031.400000 0.081860
1031.500000 0.081557
1031.600000 0.081254
1031.700000 0.080951
1031.800000 0.080648
1031.900000 0.080345
1032.000000 0.080042
1032.100000 0.079744
1032.200000 0.079447
1032.300000 0.079148
1032.400000 0.078851
1032.500000 0.078553
1032.600000 0.078255
1032.700000 0.077957
1032.800000 0.077659
1032.900000 0.077361
1033.000000 0.077063
1033.100000 0.076781
1033.200000 0.076499
1033.300000 0.076216
1033.400000 0.075934
1033.500000 0.075651
1033.600000 0.075369
1033.700000 0.075086
1033.800000 0.074804
1033.900000 0.074521
1034.000000 0.074238
1034.100000 0.073951
1034.200000 0.073664
1034.300000 0.073377
1034.400000 0.073090
1034.500000 0.072802
1034.600000 0.072515
1034.700000 0.072227
1034.800000 0.071939
1034.900000 0.071651
1035.000000 0.071362
1035.100000 0.071104
1035.200000 0.070846
1035.300000 0.070588
1035.400000 0.070329
1035.500000 0.070070
1035.600000 0.069811
1035.700000 0.069551
1035.800000 0.069292
1035.900000 0.069031
1036.000000 0.068771
1036.100000 0.068491
1036.200000 0.068210
1036.300000 0.067930
1036.400000 0.067650
1036.500000 0.067370
1036.600000 0.067090
1036.700000 0.066810
1036.800000 0.066530
1036.900000 0.066250
1037.000000 0.065971
1037.100000 0.065711
1037.200000 0.065451
1037.300000 0.065191
1037.400000 0.064931
1037.500000 0.064671
1037.600000 0.064411
1037.700000 0.064151
1037.800000 0.063891
1037.900000 0.063631
1038.000000 0.063371
1038.100000 0.063120
1038.200000 0.062869
1038.300000 0.062618
1038.400000 0.062367
1038.500000 0.062116
1038.600000 0.061865
1038.700000 0.061614
1038.800000 0.061362
1038.900000 0.061111
1039.000000 0.060860
1039.100000 0.060602
1039.200000 0.060344
1039.300000 0.060086
1039.400000 0.059828
1039.500000 0.059570
1039.600000 0.059312
1039.700000 0.059054
1039.800000 0.058796
1039.900000 0.058539
1040.000000 0.058281
1040.100000 0.058044
1040.200000 0.057808
1040.300000 0.057572
1040.400000 0.057335
1040.500000 0.057099
1040.600000 0.056862
1040.700000 0.056625
1040.800000 0.056389
1040.900000 0.056152
1041.000000 0.055915
1041.100000 0.055679
1041.200000 0.055443
1041.300000 0.055207
1041.400000 0.054971
1041.500000 0.054735
1041.600000 0.054498
1041.700000 0.054262
1041.800000 0.054026
1041.900000 0.053789
1042.000000 0.053553
1042.100000 0.053323
1042.200000 0.053094
1042.300000 0.052865
1042.400000 0.052635
1042.500000 0.052406
1042.600000 0.052177
1042.700000 0.051947
1042.800000 0.051718
1042.900000 0.051488
1043.000000 0.051259
1043.100000 0.051029
1043.200000 0.050799
1043.300000 0.050570
1043.400000 0.050340
1043.500000 0.050110
1043.600000 0.049880
1043.700000 0.049650
1043.800000 0.049420
1043.900000 0.049191
1044.000000 0.048961
1044.100000 0.048741
1044.200000 0.048521
1044.300000 0.048300
1044.400000 0.048080
1044.500000 0.047860
1044.600000 0.047629
1044.700000 0.047399
1044.800000 0.047170
1044.900000 0.046940
1045.000000 0.046710
1045.100000 0.046497
1045.200000 0.046284
1045.300000 0.046071
1045.400000 0.045858
1045.500000 0.045645
1045.600000 0.045431
1045.700000 0.045218
1045.800000 0.045004
1045.900000 0.044790
1046.000000 0.044576
1046.100000 0.044364
1046.200000 0.044152
1046.300000 0.043939
1046.400000 0.043727
1046.500000 0.043515
1046.600000 0.043303
1046.700000 0.043091
1046.800000 0.042879
1046.900000 0.042667
1047.000000 0.042455
1047.100000 0.042258
1047.200000 0.042060
1047.300000 0.041862
1047.400000 0.041665
1047.500000 0.041467
1047.600000 0.041269
1047.700000 0.041071
1047.800000 0.040874
1047.900000 0.040676
1048.000000 0.040478
1048.100000 0.040279
1048.200000 0.040080
1048.300000 0.039881
1048.400000 0.039682
1048.500000 0.039483
1048.600000 0.039276
1048.700000 0.039068
1048.800000 0.038861
1048.900000 0.038654
1049.000000 0.038447
1049.100000 0.038256
1049.200000 0.038066
1049.300000 0.037875
1049.400000 0.037685
1049.500000 0.037495
1049.600000 0.037304
1049.700000 0.037114
1049.800000 0.036924
1049.900000 0.036734
1050.000000 0.036544
1050.100000 0.036361
1050.200000 0.036178
1050.300000 0.035996
1050.400000 0.035813
1050.500000 0.035631
1050.600000 0.035448
1050.700000 0.035266
1050.800000 0.035083
1050.900000 0.034901
1051.000000 0.034719
1051.100000 0.034535
1051.200000 0.034352
1051.300000 0.034169
1051.400000 0.033985
1051.500000 0.033802
1051.600000 0.033618
1051.700000 0.033435
1051.800000 0.033251
1051.900000 0.033068
1052.000000 0.032884
1052.100000 0.032707
1052.200000 0.032530
1052.300000 0.032353
1052.400000 0.032176
1052.500000 0.031999
1052.600000 0.031828
1052.700000 0.031657
1052.800000 0.031487
1052.900000 0.031316
1053.000000 0.031146
1053.100000 0.030979
1053.200000 0.030813
1053.300000 0.030646
1053.400000 0.030479
1053.500000 0.030313
1053.600000 0.030146
1053.700000 0.029980
1053.800000 0.029813
1053.900000 0.029647
1054.000000 0.029480
1054.100000 0.029316
1054.200000 0.029151
1054.300000 0.028986
1054.400000 0.028821
1054.500000 0.028657
1054.600000 0.028498
1054.700000 0.028339
1054.800000 0.028180
1054.900000 0.028021
1055.000000 0.027862
1055.100000 0.027706
1055.200000 0.027551
1055.300000 0.027395
1055.400000 0.027239
1055.500000 0.027083
1055.600000 0.026922
1055.700000 0.026761
1055.800000 0.026600
1055.900000 0.026439
1056.000000 0.026278
1056.100000 0.026129
1056.200000 0.025979
1056.300000 0.025830
1056.400000 0.025681
1056.500000 0.025531
1056.600000 0.025377
1056.700000 0.025222
1056.800000 0.025068
1056.900000 0.024914
1057.000000 0.024760
1057.100000 0.024620
1057.200000 0.024480
1057.300000 0.024340
1057.400000 0.024200
1057.500000 0.024060
1057.600000 0.023915
1057.700000 0.023770
1057.800000 0.023626
1057.900000 0.023481
1058.000000 0.023336
1058.100000 0.023199
1058.200000 0.023062
1058.300000 0.022925
1058.400000 0.022788
1058.500000 0.022651
1058.600000 0.022514
1058.700000 0.022377
1058.800000 0.022240
1058.900000 0.022103
1059.000000 0.021966
1059.100000 0.021839
1059.200000 0.021711
1059.300000 0.021584
1059.400000 0.021457
1059.500000 0.021330
1059.600000 0.021206
1059.700000 0.021084
1059.800000 0.020960
1059.900000 0.020837
1060.000000 0.020714
1060.100000 0.020589
1060.200000 0.020463
1060.300000 0.020337
1060.400000 0.020211
1060.500000 0.020086
1060.600000 0.019956
1060.700000 0.019826
1060.800000 0.019696
1060.900000 0.019567
1061.000000 0.019437
1061.100000 0.019317
1061.200000 0.019197
1061.300000 0.019077
1061.400000 0.018957
1061.500000 0.018837
1061.600000 0.018717
1061.700000 0.018597
1061.800000 0.018476
1061.900000 0.018356
1062.000000 0.018236
1062.100000 0.018125
1062.200000 0.018014
1062.300000 0.017902
1062.400000 0.017791
1062.500000 0.017680
1062.600000 0.017572
1062.700000 0.017465
1062.800000 0.017357
1062.900000 0.017249
1063.000000 0.017142
1063.100000 0.017034
1063.200000 0.016927
1063.300000 0.016819
1063.400000 0.016712
1063.500000 0.016605
1063.600000 0.016494
1063.700000 0.016383
1063.800000 0.016272
1063.900000 0.016161
1064.000000 0.016051
1064.100000 0.015954
1064.200000 0.015857
1064.300000 0.015761
1064.400000 0.015664
1064.500000 0.015567
1064.600000 0.015471
1064.700000 0.015374
1064.800000 0.015277
1064.900000 0.015181
1065.000000 0.015084
1065.100000 0.014987
1065.200000 0.014891
1065.300000 0.014794
1065.400000 0.014697
1065.500000 0.014601
1065.600000 0.014504
1065.700000 0.014407
1065.800000 0.014310
1065.900000 0.014214
1066.000000 0.014117
1066.100000 0.014032
1066.200000 0.013947
1066.300000 0.013861
1066.400000 0.013776
1066.500000 0.013691
1066.600000 0.013606
1066.700000 0.013521
1066.800000 0.013435
1066.900000 0.013350
1067.000000 0.013265
1067.100000 0.013180
1067.200000 0.013095
1067.300000 0.013010
1067.400000 0.012925
1067.500000 0.012840
1067.600000 0.012756
1067.700000 0.012671
1067.800000 0.012586
1067.900000 0.012501
1068.000000 0.012416
1068.100000 0.012344
1068.200000 0.012272
1068.300000 0.012200
1068.400000 0.012128
1068.500000 0.012056
1068.600000 0.011984
1068.700000 0.011912
1068.800000 0.011840
1068.900000 0.011768
1069.000000 0.011696
1069.100000 0.011628
1069.200000 0.011561
1069.300000 0.011493
1069.400000 0.011425
1069.500000 0.011357
1069.600000 0.011292
1069.700000 0.011227
1069.800000 0.011161
1069.900000 0.011095
1070.000000 0.011030
1070.100000 0.010962
1070.200000 0.010894
1070.300000 0.010827
1070.400000 0.010759
1070.500000 0.010691
1070.600000 0.010624
1070.700000 0.010556
1070.800000 0.010488
1070.900000 0.010420
1071.000000 0.010353
1071.100000 0.010296
1071.200000 0.010238
1071.300000 0.010181
1071.400000 0.010124
1071.500000 0.010067
1071.600000 0.010010
1071.700000 0.009953
1071.800000 0.009896
1071.900000 0.009838
1072.000000 0.009781
1072.100000 0.009730
1072.200000 0.009678
1072.300000 0.009626
1072.400000 0.009575
1072.500000 0.009523
1072.600000 0.009473
1072.700000 0.009423
1072.800000 0.009374
1072.900000 0.009324
1073.000000 0.009274
1073.100000 0.009225
1073.200000 0.009176
1073.300000 0.009127
1073.400000 0.009078
1073.500000 0.009029
1073.600000 0.008978
1073.700000 0.008927
1073.800000 0.008876
1073.900000 0.008825
1074.000000 0.008774
1074.100000 0.008722
1074.200000 0.008671
1074.300000 0.008619
1074.400000 0.008567
1074.500000 0.008516
1074.600000 0.008471
1074.700000 0.008427
1074.800000 0.008382
1074.900000 0.008337
1075.000000 0.008293
1075.100000 0.008252
1075.200000 0.008210
1075.300000 0.008169
1075.400000 0.008128
1075.500000 0.008086
1075.600000 0.008042
1075.700000 0.007997
1075.800000 0.007952
1075.900000 0.007908
1076.000000 0.007863
1076.100000 0.007818
1076.200000 0.007774
1076.300000 0.007729
1076.400000 0.007684
1076.500000 0.007639
1076.600000 0.007590
1076.700000 0.007540
1076.800000 0.007491
1076.900000 0.007442
1077.000000 0.007393
1077.100000 0.007347
1077.200000 0.007302
1077.300000 0.007256
1077.400000 0.007211
1077.500000 0.007166
1077.600000 0.007128
1077.700000 0.007090
1077.800000 0.007052
1077.900000 0.007014
1078.000000 0.006976
1078.100000 0.006934
1078.200000 0.006893
1078.300000 0.006851
1078.400000 0.006809
1078.500000 0.006767
1078.600000 0.006722
1078.700000 0.006677
1078.800000 0.006633
1078.900000 0.006588
1079.000000 0.006543
1079.100000 0.006504
1079.200000 0.006464
1079.300000 0.006425
1079.400000 0.006385
1079.500000 0.006346
1079.600000 0.006301
1079.700000 0.006256
1079.800000 0.006212
1079.900000 0.006167
1080.000000 0.006123
1080.100000 0.006078
1080.200000 0.006034
1080.300000 0.005990
1080.400000 0.005945
1080.500000 0.005901
1080.600000 0.005862
1080.700000 0.005823
1080.800000 0.005783
1080.900000 0.005744
1081.000000 0.005704
1081.100000 0.005669
1081.200000 0.005634
1081.300000 0.005599
1081.400000 0.005564
1081.500000 0.005529
1081.600000 0.005497
1081.700000 0.005466
1081.800000 0.005434
1081.900000 0.005402
1082.000000 0.005370
1082.100000 0.005338
1082.200000 0.005306
1082.300000 0.005274
1082.400000 0.005242
1082.500000 0.005210
1082.600000 0.005171
1082.700000 0.005133
1082.800000 0.005094
1082.900000 0.005056
1083.000000 0.005018
1083.100000 0.004973
1083.200000 0.004929
1083.300000 0.004884
1083.400000 0.004840
1083.500000 0.004795
1083.600000 0.004758
1083.700000 0.004720
1083.800000 0.004683
1083.900000 0.004645
1084.000000 0.004607
1084.100000 0.004581
1084.200000 0.004555
1084.300000 0.004528
1084.400000 0.004502
1084.500000 0.004476
1084.600000 0.004446
1084.700000 0.004416
1084.800000 0.004386
1084.900000 0.004356
1085.000000 0.004326
1085.100000 0.004288
1085.200000 0.004249
1085.300000 0.004211
1085.400000 0.004172
1085.500000 0.004134
1085.600000 0.004091
1085.700000 0.004048
1085.800000 0.004005
1085.900000 0.003962
1086.000000 0.003919
1086.100000 0.003889
1086.200000 0.003859
1086.300000 0.003829
1086.400000 0.003800
1086.500000 0.003770
1086.600000 0.003749
1086.700000 0.003728
1086.800000 0.003708
1086.900000 0.003687
1087.000000 0.003666
1087.100000 0.003644
1087.200000 0.003622
1087.300000 0.003600
1087.400000 0.003578
1087.500000 0.003556
1087.600000 0.003529
1087.700000 0.003503
1087.800000 0.003476
1087.900000 0.003449
1088.000000 0.003423
1088.100000 0.003392
1088.200000 0.003361
1088.300000 0.003330
1088.400000 0.003299
1088.500000 0.003269
1088.600000 0.003236
1088.700000 0.003203
1088.800000 0.003171
1088.900000 0.003138
1089.000000 0.003106
1089.100000 0.003075
1089.200000 0.003045
1089.300000 0.003014
1089.400000 0.002984
1089.500000 0.002953
1089.600000 0.002923
1089.700000 0.002894
1089.800000 0.002864
1089.900000 0.002834
1090.000000 0.002804
1090.100000 0.002780
1090.200000 0.002755
1090.300000 0.002730
1090.400000 0.002705
1090.500000 0.002681
1090.600000 0.002662
1090.700000 0.002643
1090.800000 0.002625
1090.900000 0.002606
1091.000000 0.002587
1091.100000 0.002567
1091.200000 0.002546
1091.300000 0.002526
1091.400000 0.002505
1091.500000 0.002485
1091.600000 0.002456
1091.700000 0.002427
1091.800000 0.002398
1091.900000 0.002369
1092.000000 0.002341
1092.100000 0.002313
1092.200000 0.002285
1092.300000 0.002257
1092.400000 0.002229
1092.500000 0.002201
1092.600000 0.002181
1092.700000 0.002160
1092.800000 0.002140
1092.900000 0.002119
1093.000000 0.002099
1093.100000 0.002081
1093.200000 0.002062
1093.300000 0.002044
1093.400000 0.002025
1093.500000 0.002007
1093.600000 0.001984
1093.700000 0.001961
1093.800000 0.001939
1093.900000 0.001916
1094.000000 0.001893
1094.100000 0.001873
1094.200000 0.001852
1094.300000 0.001831
1094.400000 0.001811
1094.500000 0.001790
1094.600000 0.001773
1094.700000 0.001756
1094.800000 0.001739
1094.900000 0.001722
1095.000000 0.001705
1095.100000 0.001688
1095.200000 0.001671
1095.300000 0.001653
1095.400000 0.001636
1095.500000 0.001619
1095.600000 0.001600
1095.700000 0.001582
1095.800000 0.001563
1095.900000 0.001545
1096.000000 0.001526
1096.100000 0.001512
1096.200000 0.001497
1096.300000 0.001483
1096.400000 0.001468
1096.500000 0.001454
1096.600000 0.001439
1096.700000 0.001423
1096.800000 0.001408
1096.900000 0.001393
1097.000000 0.001378
1097.100000 0.001358
1097.200000 0.001338
1097.300000 0.001318
1097.400000 0.001299
1097.500000 0.001279
1097.600000 0.001260
1097.700000 0.001242
1097.800000 0.001223
1097.900000 0.001204
1098.000000 0.001186
1098.100000 0.001174
1098.200000 0.001162
1098.300000 0.001150
1098.400000 0.001139
1098.500000 0.001221
1098.600000 0.001268
1098.700000 0.001283
1098.800000 0.001268
1098.900000 0.001225
