# LSST transmission (instrument+atmosphere)
#   wavelength[nm] Thoughput
803.000000 0.000000
803.100000 0.000909
803.200000 0.001818
803.300000 0.002704
803.400000 0.003591
803.500000 0.004501
803.600000 0.005411
803.700000 0.006298
803.800000 0.007184
803.900000 0.008094
804.000000 0.009004
804.100000 0.009890
804.200000 0.010776
804.300000 0.011686
804.400000 0.012596
804.500000 0.013482
804.600000 0.014374
804.700000 0.015291
804.800000 0.016208
804.900000 0.017126
805.000000 0.018045
805.100000 0.018940
805.200000 0.019835
805.300000 0.020756
805.400000 0.021677
805.500000 0.022574
805.600000 0.023463
805.700000 0.024376
805.800000 0.025288
805.900000 0.026177
806.000000 0.027065
806.100000 0.027977
806.200000 0.028890
806.300000 0.029802
806.400000 0.030713
806.500000 0.031601
806.600000 0.032489
806.700000 0.033400
806.800000 0.034312
806.900000 0.035199
807.000000 0.036087
807.100000 0.036999
807.200000 0.037912
807.300000 0.038800
807.400000 0.039689
807.500000 0.040601
807.600000 0.041514
807.700000 0.042402
807.800000 0.043291
807.900000 0.044203
808.000000 0.045116
808.100000 0.046905
808.200000 0.048693
808.300000 0.050480
808.400000 0.052267
808.500000 0.054052
808.600000 0.055836
808.700000 0.057620
808.800000 0.059402
808.900000 0.061208
809.000000 0.063012
809.100000 0.064798
809.200000 0.066583
809.300000 0.068367
809.400000 0.070151
809.500000 0.071934
809.600000 0.073732
809.700000 0.075529
809.800000 0.077327
809.900000 0.079125
810.000000 0.080923
810.100000 0.082719
810.200000 0.084515
810.300000 0.086310
810.400000 0.088106
810.500000 0.089926
810.600000 0.091708
810.700000 0.093465
810.800000 0.095220
810.900000 0.096974
811.000000 0.098726
811.100000 0.100457
811.200000 0.102186
811.300000 0.103912
811.400000 0.105637
811.500000 0.107359
811.600000 0.109102
811.700000 0.110843
811.800000 0.112582
811.900000 0.114321
812.000000 0.116057
812.100000 0.117844
812.200000 0.119630
812.300000 0.121392
812.400000 0.123153
812.500000 0.124914
812.600000 0.126490
812.700000 0.128061
812.800000 0.129626
812.900000 0.131185
813.000000 0.132739
813.100000 0.134075
813.200000 0.135401
813.300000 0.136715
813.400000 0.138018
813.500000 0.139309
813.600000 0.140858
813.700000 0.142403
813.800000 0.143943
813.900000 0.145501
814.000000 0.147055
814.100000 0.148693
814.200000 0.150329
814.300000 0.151963
814.400000 0.153595
814.500000 0.155225
814.600000 0.156617
814.700000 0.158003
814.800000 0.159381
814.900000 0.160752
815.000000 0.162115
815.100000 0.163417
815.200000 0.164711
815.300000 0.165997
815.400000 0.167274
815.500000 0.168565
815.600000 0.169886
815.700000 0.171176
815.800000 0.172458
815.900000 0.173733
816.000000 0.175001
816.100000 0.176436
816.200000 0.177867
816.300000 0.179293
816.400000 0.180715
816.500000 0.182133
816.600000 0.184365
816.700000 0.186607
816.800000 0.188860
816.900000 0.191123
817.000000 0.193397
817.100000 0.195103
817.200000 0.196810
817.300000 0.198494
817.400000 0.200178
817.500000 0.201862
817.600000 0.202743
817.700000 0.203610
817.800000 0.204465
817.900000 0.205306
818.000000 0.206133
818.100000 0.208417
818.200000 0.210711
818.300000 0.213015
818.400000 0.215329
818.500000 0.217653
818.600000 0.219842
818.700000 0.222039
818.800000 0.224244
818.900000 0.226479
819.000000 0.228722
819.100000 0.230462
819.200000 0.232203
819.300000 0.233944
819.400000 0.235686
819.500000 0.237429
819.600000 0.239121
819.700000 0.240813
819.800000 0.242504
819.900000 0.244196
820.000000 0.245888
820.100000 0.248877
820.200000 0.251884
820.300000 0.254909
820.400000 0.257952
820.500000 0.261036
820.600000 0.263803
820.700000 0.266561
820.800000 0.269332
820.900000 0.272117
821.000000 0.274914
821.100000 0.276558
821.200000 0.278200
821.300000 0.279841
821.400000 0.281480
821.500000 0.283117
821.600000 0.284219
821.700000 0.285312
821.800000 0.286397
821.900000 0.287474
822.000000 0.288543
822.100000 0.287882
822.200000 0.287191
822.300000 0.286447
822.400000 0.285674
822.500000 0.284871
822.600000 0.283219
822.700000 0.281528
822.800000 0.279798
822.900000 0.278028
823.000000 0.276219
823.100000 0.279269
823.200000 0.282336
823.300000 0.285419
823.400000 0.288519
823.500000 0.291635
823.600000 0.296703
823.700000 0.301808
823.800000 0.306951
823.900000 0.312154
824.000000 0.317396
824.100000 0.320481
824.200000 0.323581
824.300000 0.326696
824.400000 0.329825
824.500000 0.332969
824.600000 0.335072
824.700000 0.337179
824.800000 0.339290
824.900000 0.341404
825.000000 0.343522
825.100000 0.344938
825.200000 0.346352
825.300000 0.347761
825.400000 0.349167
825.500000 0.350593
825.600000 0.352016
825.700000 0.353411
825.800000 0.354803
825.900000 0.356192
826.000000 0.357576
826.100000 0.360213
826.200000 0.362858
826.300000 0.365512
826.400000 0.368174
826.500000 0.370845
826.600000 0.372902
826.700000 0.374963
826.800000 0.377025
826.900000 0.379091
827.000000 0.381159
827.100000 0.381006
827.200000 0.380836
827.300000 0.380624
827.400000 0.380394
827.500000 0.380147
827.600000 0.380697
827.700000 0.381236
827.800000 0.381765
827.900000 0.382283
828.000000 0.382791
828.100000 0.385265
828.200000 0.387746
828.300000 0.390234
828.400000 0.392729
828.500000 0.395230
828.600000 0.396973
828.700000 0.398511
828.800000 0.400048
828.900000 0.400945
829.000000 0.401842
829.100000 0.402978
829.200000 0.404115
829.300000 0.405276
829.400000 0.406438
829.500000 0.407579
829.600000 0.409243
829.700000 0.410934
829.800000 0.412628
829.900000 0.414302
830.000000 0.415979
830.100000 0.417073
830.200000 0.418168
830.300000 0.419263
830.400000 0.420360
830.500000 0.421434
830.600000 0.423132
830.700000 0.424857
830.800000 0.426586
830.900000 0.428295
831.000000 0.430007
831.100000 0.430769
831.200000 0.431531
831.300000 0.432268
831.400000 0.433005
831.500000 0.433765
831.600000 0.433526
831.700000 0.433258
831.800000 0.432987
831.900000 0.432734
832.000000 0.432477
832.100000 0.434059
832.200000 0.435644
832.300000 0.436557
832.400000 0.437470
832.500000 0.438175
832.600000 0.439155
832.700000 0.440135
832.800000 0.441114
832.900000 0.442094
833.000000 0.443073
833.100000 0.442889
833.200000 0.442704
833.300000 0.442519
833.400000 0.442334
833.500000 0.442149
833.600000 0.442240
833.700000 0.442332
833.800000 0.442424
833.900000 0.442516
834.000000 0.442608
834.100000 0.443307
834.200000 0.444005
834.300000 0.444703
834.400000 0.445400
834.500000 0.446096
834.600000 0.446332
834.700000 0.446567
834.800000 0.446801
834.900000 0.447034
835.000000 0.447266
835.100000 0.447051
835.200000 0.446835
835.300000 0.446618
835.400000 0.446400
835.500000 0.446181
835.600000 0.446145
835.700000 0.446109
835.800000 0.446071
835.900000 0.446033
836.000000 0.445995
836.100000 0.446122
836.200000 0.446249
836.300000 0.446376
836.400000 0.446504
836.500000 0.446631
836.600000 0.446759
836.700000 0.446887
836.800000 0.447016
836.900000 0.447144
837.000000 0.447272
837.100000 0.447344
837.200000 0.447417
837.300000 0.447489
837.400000 0.447561
837.500000 0.447633
837.600000 0.447613
837.700000 0.447592
837.800000 0.447571
837.900000 0.447550
838.000000 0.447529
838.100000 0.447634
838.200000 0.447738
838.300000 0.447842
838.400000 0.447946
838.500000 0.448049
838.600000 0.448061
838.700000 0.448072
838.800000 0.448083
838.900000 0.448093
839.000000 0.448103
839.100000 0.448065
839.200000 0.448028
839.300000 0.447990
839.400000 0.447952
839.500000 0.447915
839.600000 0.447970
839.700000 0.448025
839.800000 0.448080
839.900000 0.448136
840.000000 0.448192
840.100000 0.448046
840.200000 0.447900
840.300000 0.447755
840.400000 0.447609
840.500000 0.447465
840.600000 0.447320
840.700000 0.447176
840.800000 0.447032
840.900000 0.446888
841.000000 0.446744
841.100000 0.446787
841.200000 0.446829
841.300000 0.446871
841.400000 0.446914
841.500000 0.446956
841.600000 0.446998
841.700000 0.447040
841.800000 0.447082
841.900000 0.447124
842.000000 0.447165
842.100000 0.447259
842.200000 0.447353
842.300000 0.447447
842.400000 0.447541
842.500000 0.447635
842.600000 0.447637
842.700000 0.447640
842.800000 0.447643
842.900000 0.447645
843.000000 0.447648
843.100000 0.447522
843.200000 0.447397
843.300000 0.447271
843.400000 0.447145
843.500000 0.447020
843.600000 0.447076
843.700000 0.447130
843.800000 0.447185
843.900000 0.447239
844.000000 0.447294
844.100000 0.447230
844.200000 0.447167
844.300000 0.447104
844.400000 0.447043
844.500000 0.446984
844.600000 0.447017
844.700000 0.447051
844.800000 0.447088
844.900000 0.447127
845.000000 0.447167
845.100000 0.447203
845.200000 0.447242
845.300000 0.447282
845.400000 0.447324
845.500000 0.447368
845.600000 0.447322
845.700000 0.447278
845.800000 0.447235
845.900000 0.447194
846.000000 0.447153
846.100000 0.447045
846.200000 0.446938
846.300000 0.446830
846.400000 0.446723
846.500000 0.446614
846.600000 0.446687
846.700000 0.446759
846.800000 0.446831
846.900000 0.446903
847.000000 0.446975
847.100000 0.446973
847.200000 0.446971
847.300000 0.446968
847.400000 0.446966
847.500000 0.446964
847.600000 0.446871
847.700000 0.446778
847.800000 0.446684
847.900000 0.446591
848.000000 0.446498
848.100000 0.446496
848.200000 0.446493
848.300000 0.446491
848.400000 0.446488
848.500000 0.446486
848.600000 0.446484
848.700000 0.446484
848.800000 0.446484
848.900000 0.446483
849.000000 0.446483
849.100000 0.446429
849.200000 0.446375
849.300000 0.446320
849.400000 0.446263
849.500000 0.446205
849.600000 0.446145
849.700000 0.446084
849.800000 0.446021
849.900000 0.445955
850.000000 0.445888
850.100000 0.445914
850.200000 0.445937
850.300000 0.445959
850.400000 0.445979
850.500000 0.445997
850.600000 0.446013
850.700000 0.446028
850.800000 0.446042
850.900000 0.446054
851.000000 0.446066
851.100000 0.445978
851.200000 0.445889
851.300000 0.445801
851.400000 0.445713
851.500000 0.445626
851.600000 0.445721
851.700000 0.445816
851.800000 0.445912
851.900000 0.446007
852.000000 0.446102
852.100000 0.446124
852.200000 0.446146
852.300000 0.446168
852.400000 0.446190
852.500000 0.446212
852.600000 0.446324
852.700000 0.446437
852.800000 0.446550
852.900000 0.446662
853.000000 0.446775
853.100000 0.446741
853.200000 0.446706
853.300000 0.446671
853.400000 0.446637
853.500000 0.446602
853.600000 0.446476
853.700000 0.446349
853.800000 0.446221
853.900000 0.446094
854.000000 0.445967
854.100000 0.445977
854.200000 0.445989
854.300000 0.446001
854.400000 0.446015
854.500000 0.446030
854.600000 0.446138
854.700000 0.446247
854.800000 0.446358
854.900000 0.446471
855.000000 0.446586
855.100000 0.446646
855.200000 0.446707
855.300000 0.446770
855.400000 0.446835
855.500000 0.446902
855.600000 0.446970
855.700000 0.447040
855.800000 0.447111
855.900000 0.447184
856.000000 0.447257
856.100000 0.447218
856.200000 0.447180
856.300000 0.447142
856.400000 0.447104
856.500000 0.447065
856.600000 0.447025
856.700000 0.446984
856.800000 0.446944
856.900000 0.446904
857.000000 0.446864
857.100000 0.446874
857.200000 0.446885
857.300000 0.446896
857.400000 0.446906
857.500000 0.446917
857.600000 0.447019
857.700000 0.447120
857.800000 0.447222
857.900000 0.447323
858.000000 0.447425
858.100000 0.447429
858.200000 0.447433
858.300000 0.447437
858.400000 0.447442
858.500000 0.447446
858.600000 0.447451
858.700000 0.447457
858.800000 0.447463
858.900000 0.447470
859.000000 0.447476
859.100000 0.447508
859.200000 0.447539
859.300000 0.447569
859.400000 0.447598
859.500000 0.447625
859.600000 0.447651
859.700000 0.447675
859.800000 0.447697
859.900000 0.447717
860.000000 0.447735
860.100000 0.447706
860.200000 0.447676
860.300000 0.447643
860.400000 0.447608
860.500000 0.447571
860.600000 0.447533
860.700000 0.447494
860.800000 0.447453
860.900000 0.447411
861.000000 0.447368
861.100000 0.447351
861.200000 0.447335
861.300000 0.447318
861.400000 0.447301
861.500000 0.447285
861.600000 0.447270
861.700000 0.447255
861.800000 0.447241
861.900000 0.447226
862.000000 0.447211
862.100000 0.447278
862.200000 0.447344
862.300000 0.447411
862.400000 0.447478
862.500000 0.447545
862.600000 0.447521
862.700000 0.447496
862.800000 0.447472
862.900000 0.447448
863.000000 0.447424
863.100000 0.447434
863.200000 0.447444
863.300000 0.447455
863.400000 0.447465
863.500000 0.447475
863.600000 0.447484
863.700000 0.447492
863.800000 0.447500
863.900000 0.447508
864.000000 0.447516
864.100000 0.447505
864.200000 0.447494
864.300000 0.447485
864.400000 0.447477
864.500000 0.447470
864.600000 0.447465
864.700000 0.447462
864.800000 0.447461
864.900000 0.447461
865.000000 0.447464
865.100000 0.447442
865.200000 0.447421
865.300000 0.447403
865.400000 0.447386
865.500000 0.447371
865.600000 0.447358
865.700000 0.447346
865.800000 0.447336
865.900000 0.447326
866.000000 0.447318
866.100000 0.447324
866.200000 0.447331
866.300000 0.447339
866.400000 0.447345
866.500000 0.447351
866.600000 0.447356
866.700000 0.447361
866.800000 0.447366
866.900000 0.447371
867.000000 0.447375
867.100000 0.447337
867.200000 0.447299
867.300000 0.447260
867.400000 0.447222
867.500000 0.447183
867.600000 0.447145
867.700000 0.447106
867.800000 0.447068
867.900000 0.447029
868.000000 0.446991
868.100000 0.447002
868.200000 0.447014
868.300000 0.447025
868.400000 0.447037
868.500000 0.447048
868.600000 0.447062
868.700000 0.447077
868.800000 0.447093
868.900000 0.447109
869.000000 0.447124
869.100000 0.447082
869.200000 0.447037
869.300000 0.446991
869.400000 0.446942
869.500000 0.446890
869.600000 0.446926
869.700000 0.446958
869.800000 0.446987
869.900000 0.447012
870.000000 0.447032
870.100000 0.446986
870.200000 0.446935
870.300000 0.446880
870.400000 0.446821
870.500000 0.446758
870.600000 0.446692
870.700000 0.446623
870.800000 0.446551
870.900000 0.446476
871.000000 0.446400
871.100000 0.446301
871.200000 0.446201
871.300000 0.446101
871.400000 0.446001
871.500000 0.445902
871.600000 0.445806
871.700000 0.445709
871.800000 0.445611
871.900000 0.445514
872.000000 0.445417
872.100000 0.445381
872.200000 0.445345
872.300000 0.445309
872.400000 0.445273
872.500000 0.445237
872.600000 0.445201
872.700000 0.445165
872.800000 0.445130
872.900000 0.445094
873.000000 0.445058
873.100000 0.444973
873.200000 0.444887
873.300000 0.444802
873.400000 0.444716
873.500000 0.444631
873.600000 0.444543
873.700000 0.444455
873.800000 0.444366
873.900000 0.444277
874.000000 0.444188
874.100000 0.444142
874.200000 0.444098
874.300000 0.444056
874.400000 0.444015
874.500000 0.443977
874.600000 0.443942
874.700000 0.443910
874.800000 0.443880
874.900000 0.443854
875.000000 0.443831
875.100000 0.443729
875.200000 0.443631
875.300000 0.443536
875.400000 0.443443
875.500000 0.443354
875.600000 0.443267
875.700000 0.443183
875.800000 0.443101
875.900000 0.443021
876.000000 0.442942
876.100000 0.442919
876.200000 0.442896
876.300000 0.442874
876.400000 0.442851
876.500000 0.442827
876.600000 0.442801
876.700000 0.442774
876.800000 0.442748
876.900000 0.442722
877.000000 0.442696
877.100000 0.442613
877.200000 0.442529
877.300000 0.442446
877.400000 0.442362
877.500000 0.442279
877.600000 0.442195
877.700000 0.442112
877.800000 0.442029
877.900000 0.441945
878.000000 0.441862
878.100000 0.441769
878.200000 0.441676
878.300000 0.441584
878.400000 0.441491
878.500000 0.441398
878.600000 0.441304
878.700000 0.441210
878.800000 0.441114
878.900000 0.441019
879.000000 0.440924
879.100000 0.440933
879.200000 0.440943
879.300000 0.440953
879.400000 0.440965
879.500000 0.440979
879.600000 0.440995
879.700000 0.441013
879.800000 0.441032
879.900000 0.441054
880.000000 0.441078
880.100000 0.441027
880.200000 0.440977
880.300000 0.440930
880.400000 0.440885
880.500000 0.440842
880.600000 0.440801
880.700000 0.440762
880.800000 0.440724
880.900000 0.440687
881.000000 0.440652
881.100000 0.440704
881.200000 0.440757
881.300000 0.440810
881.400000 0.440862
881.500000 0.440913
881.600000 0.440873
881.700000 0.440833
881.800000 0.440792
881.900000 0.440750
882.000000 0.440709
882.100000 0.440704
882.200000 0.440699
882.300000 0.440694
882.400000 0.440688
882.500000 0.440683
882.600000 0.440588
882.700000 0.440493
882.800000 0.440398
882.900000 0.440304
883.000000 0.440209
883.100000 0.440209
883.200000 0.440208
883.300000 0.440208
883.400000 0.440208
883.500000 0.440209
883.600000 0.440209
883.700000 0.440210
883.800000 0.440210
883.900000 0.440211
884.000000 0.440212
884.100000 0.440194
884.200000 0.440176
884.300000 0.440158
884.400000 0.440140
884.500000 0.440123
884.600000 0.440107
884.700000 0.440090
884.800000 0.440074
884.900000 0.440059
885.000000 0.440044
885.100000 0.439860
885.200000 0.439677
885.300000 0.439494
885.400000 0.439312
885.500000 0.439131
885.600000 0.438951
885.700000 0.438772
885.800000 0.438593
885.900000 0.438415
886.000000 0.438238
886.100000 0.438219
886.200000 0.438200
886.300000 0.438182
886.400000 0.438164
886.500000 0.438146
886.600000 0.438216
886.700000 0.438287
886.800000 0.438358
886.900000 0.438429
887.000000 0.438500
887.100000 0.438493
887.200000 0.438487
887.300000 0.438480
887.400000 0.438474
887.500000 0.438468
887.600000 0.438373
887.700000 0.438279
887.800000 0.438185
887.900000 0.438091
888.000000 0.437998
888.100000 0.438021
888.200000 0.438044
888.300000 0.438067
888.400000 0.438090
888.500000 0.438112
888.600000 0.438316
888.700000 0.438523
888.800000 0.438730
888.900000 0.438937
889.000000 0.439143
889.100000 0.438974
889.200000 0.438802
889.300000 0.438625
889.400000 0.438443
889.500000 0.438254
889.600000 0.438148
889.700000 0.438034
889.800000 0.437912
889.900000 0.437783
890.000000 0.437647
890.100000 0.437404
890.200000 0.437155
890.300000 0.436899
890.400000 0.436636
890.500000 0.436368
890.600000 0.436272
890.700000 0.436172
890.800000 0.436067
890.900000 0.435959
891.000000 0.435849
891.100000 0.435684
891.200000 0.435519
891.300000 0.435354
891.400000 0.435191
891.500000 0.435030
891.600000 0.434874
891.700000 0.434717
891.800000 0.434559
891.900000 0.434402
892.000000 0.434244
892.100000 0.433920
892.200000 0.433596
892.300000 0.433272
892.400000 0.432947
892.500000 0.432622
892.600000 0.431944
892.700000 0.431266
892.800000 0.430589
892.900000 0.429911
893.000000 0.429235
893.100000 0.428809
893.200000 0.428384
893.300000 0.427959
893.400000 0.427535
893.500000 0.427112
893.600000 0.427035
893.700000 0.426955
893.800000 0.426874
893.900000 0.426792
894.000000 0.426712
894.100000 0.426025
894.200000 0.425343
894.300000 0.424666
894.400000 0.423996
894.500000 0.423332
894.600000 0.422153
894.700000 0.420982
894.800000 0.419821
894.900000 0.418669
895.000000 0.417527
895.100000 0.416016
895.200000 0.414516
895.300000 0.413024
895.400000 0.411541
895.500000 0.410066
895.600000 0.409035
895.700000 0.408009
895.800000 0.406990
895.900000 0.405974
896.000000 0.404963
896.100000 0.403561
896.200000 0.402160
896.300000 0.400759
896.400000 0.399356
896.500000 0.397950
896.600000 0.397411
896.700000 0.396871
896.800000 0.396332
896.900000 0.395794
897.000000 0.395255
897.100000 0.396163
897.200000 0.397071
897.300000 0.397979
897.400000 0.398888
897.500000 0.399797
897.600000 0.400358
897.700000 0.400919
897.800000 0.401481
897.900000 0.402043
898.000000 0.402604
898.100000 0.399253
898.200000 0.395902
898.300000 0.392552
898.400000 0.389203
898.500000 0.385854
898.600000 0.381379
898.700000 0.376907
898.800000 0.372437
898.900000 0.367968
899.000000 0.363499
899.100000 0.365518
899.200000 0.367534
899.300000 0.369545
899.400000 0.371553
899.500000 0.373554
899.600000 0.376419
899.700000 0.379278
899.800000 0.382129
899.900000 0.384972
900.000000 0.387808
900.100000 0.386717
900.200000 0.385619
900.300000 0.384515
900.400000 0.383404
900.500000 0.382288
900.600000 0.382467
900.700000 0.382641
900.800000 0.382809
900.900000 0.382973
901.000000 0.383134
901.100000 0.383916
901.200000 0.384696
901.300000 0.385476
901.400000 0.386255
901.500000 0.387037
901.600000 0.386698
901.700000 0.386360
901.800000 0.386021
901.900000 0.385682
902.000000 0.385343
902.100000 0.384714
902.200000 0.384085
902.300000 0.383457
902.400000 0.382829
902.500000 0.382201
902.600000 0.383209
902.700000 0.384217
902.800000 0.385225
902.900000 0.386232
903.000000 0.387239
903.100000 0.390070
903.200000 0.392898
903.300000 0.395723
903.400000 0.398546
903.500000 0.401367
903.600000 0.403155
903.700000 0.404940
903.800000 0.406723
903.900000 0.408503
904.000000 0.410282
904.100000 0.409799
904.200000 0.409317
904.300000 0.408835
904.400000 0.408355
904.500000 0.407876
904.600000 0.407313
904.700000 0.406752
904.800000 0.406192
904.900000 0.405636
905.000000 0.405081
905.100000 0.405017
905.200000 0.404955
905.300000 0.404896
905.400000 0.404838
905.500000 0.404783
905.600000 0.404304
905.700000 0.403827
905.800000 0.403351
905.900000 0.402877
906.000000 0.402403
906.100000 0.400282
906.200000 0.398162
906.300000 0.396042
906.400000 0.393923
906.500000 0.391804
906.600000 0.389514
906.700000 0.387224
906.800000 0.384936
906.900000 0.382648
907.000000 0.380362
907.100000 0.379479
907.200000 0.378596
907.300000 0.377714
907.400000 0.376833
907.500000 0.375952
907.600000 0.375580
907.700000 0.375209
907.800000 0.374837
907.900000 0.374466
908.000000 0.374095
908.100000 0.374262
908.200000 0.374428
908.300000 0.374594
908.400000 0.374760
908.500000 0.374926
908.600000 0.374922
908.700000 0.374917
908.800000 0.374912
908.900000 0.374907
909.000000 0.374902
909.100000 0.375250
909.200000 0.375598
909.300000 0.375386
909.400000 0.375173
909.500000 0.374758
909.600000 0.374175
909.700000 0.373612
909.800000 0.373048
909.900000 0.372465
910.000000 0.371881
910.100000 0.370421
910.200000 0.368965
910.300000 0.367493
910.400000 0.366025
910.500000 0.364561
910.600000 0.364732
910.700000 0.364919
910.800000 0.365101
910.900000 0.365260
911.000000 0.365414
911.100000 0.365005
911.200000 0.364594
911.300000 0.364160
911.400000 0.363725
911.500000 0.363308
911.600000 0.361536
911.700000 0.359749
911.800000 0.357967
911.900000 0.356210
912.000000 0.354458
912.100000 0.354578
912.200000 0.354693
912.300000 0.354804
912.400000 0.354910
912.500000 0.355032
912.600000 0.352202
912.700000 0.349182
912.800000 0.346174
912.900000 0.342627
913.000000 0.339098
913.100000 0.335403
913.200000 0.331728
913.300000 0.328073
913.400000 0.324439
913.500000 0.320807
913.600000 0.321056
913.700000 0.321309
913.800000 0.321546
913.900000 0.321767
914.000000 0.321971
914.100000 0.322880
914.200000 0.323764
914.300000 0.324623
914.400000 0.325458
914.500000 0.326268
914.600000 0.323874
914.700000 0.321488
914.800000 0.319110
914.900000 0.316740
915.000000 0.314378
915.100000 0.309370
915.200000 0.304399
915.300000 0.299482
915.400000 0.294600
915.500000 0.289753
915.600000 0.289165
915.700000 0.288568
915.800000 0.287961
915.900000 0.287346
916.000000 0.286721
916.100000 0.288425
916.200000 0.290094
916.300000 0.291730
916.400000 0.293331
916.500000 0.294899
916.600000 0.293450
916.700000 0.292000
916.800000 0.290550
916.900000 0.289078
917.000000 0.287606
917.100000 0.283920
917.200000 0.280258
917.300000 0.276621
917.400000 0.273008
917.500000 0.269421
917.600000 0.267056
917.700000 0.264701
917.800000 0.262357
917.900000 0.260023
918.000000 0.257700
918.100000 0.257699
918.200000 0.257681
918.300000 0.257645
918.400000 0.257591
918.500000 0.257500
918.600000 0.257448
918.700000 0.257398
918.800000 0.257329
918.900000 0.257243
919.000000 0.257138
919.100000 0.256032
919.200000 0.254921
919.300000 0.253805
919.400000 0.252683
919.500000 0.251556
919.600000 0.250000
919.700000 0.248444
919.800000 0.246888
919.900000 0.245331
920.000000 0.243774
920.100000 0.242838
920.200000 0.241894
920.300000 0.240961
920.400000 0.240019
920.500000 0.239069
920.600000 0.237366
920.700000 0.235665
920.800000 0.233967
920.900000 0.232270
921.000000 0.230574
921.100000 0.228325
921.200000 0.226086
921.300000 0.223857
921.400000 0.221639
921.500000 0.219431
921.600000 0.217741
921.700000 0.216053
921.800000 0.214368
921.900000 0.212665
922.000000 0.210964
922.100000 0.209810
922.200000 0.208650
922.300000 0.207485
922.400000 0.206313
922.500000 0.205136
922.600000 0.203442
922.700000 0.201750
922.800000 0.200061
922.900000 0.198374
923.000000 0.196690
923.100000 0.194913
923.200000 0.193139
923.300000 0.191370
923.400000 0.189605
923.500000 0.187824
923.600000 0.185971
923.700000 0.184143
923.800000 0.182321
923.900000 0.180505
924.000000 0.178694
924.100000 0.176918
924.200000 0.175146
924.300000 0.173378
924.400000 0.171615
924.500000 0.169855
924.600000 0.168243
924.700000 0.166631
924.800000 0.165021
924.900000 0.163413
925.000000 0.161805
925.100000 0.160412
925.200000 0.159016
925.300000 0.157637
925.400000 0.156254
925.500000 0.154867
925.600000 0.153413
925.700000 0.151957
925.800000 0.150500
925.900000 0.149041
926.000000 0.147581
926.100000 0.146089
926.200000 0.144597
926.300000 0.143105
926.400000 0.141613
926.500000 0.140123
926.600000 0.138720
926.700000 0.137316
926.800000 0.135910
926.900000 0.134482
927.000000 0.133053
927.100000 0.130794
927.200000 0.128554
927.300000 0.126332
927.400000 0.124129
927.500000 0.121944
927.600000 0.119519
927.700000 0.117119
927.800000 0.114744
927.900000 0.112393
928.000000 0.110068
928.100000 0.108462
928.200000 0.106863
928.300000 0.105270
928.400000 0.103683
928.500000 0.102084
928.600000 0.100379
928.700000 0.098701
928.800000 0.097032
928.900000 0.095373
929.000000 0.093723
929.100000 0.091897
929.200000 0.090086
929.300000 0.088288
929.400000 0.086505
929.500000 0.084735
929.600000 0.082630
929.700000 0.080550
929.800000 0.078495
929.900000 0.076466
930.000000 0.074463
930.100000 0.072545
930.200000 0.070649
930.300000 0.068793
930.400000 0.066960
930.500000 0.065148
930.600000 0.063376
930.700000 0.061626
930.800000 0.059899
930.900000 0.058193
931.000000 0.056509
931.100000 0.054781
931.200000 0.053078
931.300000 0.051400
931.400000 0.049748
931.500000 0.048122
931.600000 0.046087
931.700000 0.044099
931.800000 0.042156
931.900000 0.040245
932.000000 0.038380
932.100000 0.037084
932.200000 0.035807
932.300000 0.034547
932.400000 0.033304
932.500000 0.032080
932.600000 0.031194
932.700000 0.030307
932.800000 0.029418
932.900000 0.028527
933.000000 0.027634
933.100000 0.026525
933.200000 0.025430
933.300000 0.024347
933.400000 0.023278
933.500000 0.022436
933.600000 0.021230
933.700000 0.020284
933.800000 0.019360
933.900000 0.018447
934.000000 0.017558
934.100000 0.016988
934.200000 0.016428
934.300000 0.015866
934.400000 0.015313
934.500000 0.014769
934.600000 0.014842
934.700000 0.014902
934.800000 0.014939
934.900000 0.014941
935.000000 0.014920
935.100000 0.014612
935.200000 0.014298
935.300000 0.013966
935.400000 0.013626
935.500000 0.013292
935.600000 0.012744
935.700000 0.012191
935.800000 0.011646
935.900000 0.011121
936.000000 0.010604
936.100000 0.010204
936.200000 0.009801
936.300000 0.009396
936.400000 0.008989
936.500000 0.008590
936.600000 0.008116
936.700000 0.007637
936.800000 0.007162
936.900000 0.006704
937.000000 0.006252
937.100000 0.005887
937.200000 0.005513
937.300000 0.005143
937.400000 0.004765
937.500000 0.004367
937.600000 0.003937
937.700000 0.003505
937.800000 0.003069
937.900000 0.002644
938.000000 0.002215
938.100000 0.001774
938.200000 0.001329
938.300000 0.000893
938.400000 0.000454
938.500000 0.000228
